Sample Index, EXG Channel 0, EXG Channel 1, EXG Channel 2, EXG Channel 3, EXG Channel 4, EXG Channel 5, EXG Channel 6, EXG Channel 7, EXG Channel 8, EXG Channel 9, EXG Channel 10, EXG Channel 11, EXG Channel 12, EXG Channel 13, EXG Channel 14, EXG Channel 15, Accel Channel 0, Accel Channel 1, Accel Channel 2, Other, Other, Other, Other, Other, Other, Other, Analog Channel 0, Analog Channel 1, Analog Channel 2, Timestamp, Timestamp (Formatted)
0.0, 1066907.15625, 954082.78125, -1124961.46875, -1053962.8125, 280728.609375, -766681.59375, -77670.33984375, -382024.921875, 0.0, 0.0, 0.0, 0.0, 0.0, 0.0, 0.0, 0.0, 0.0, 0.0, 0.0, 192.0, 0.0, 0.0, 0.0, 0.0, 0.0, 0.0, 0.0, 0.0, 0.0, 1.6283195354718986E9, 2021-08-07 00:58:55.471
100.0, 1067697.9375, 954602.0625, -1124951.25, -1054197.84375, 292696.078125, -767634.890625, -76992.28125, -381970.1953125, 71718.521484375, 668184.984375, -1126028.4375, -1221929.25, 471216.421875, 396023.34375, -689322.9375, -637832.578125, 0.020000001415610313, 0.503000020980835, 0.015000000596046448, 192.0, 0.5, 32.0, 15.5, 56.0, 0.0, 120.0, 0.0, 0.0, 0.0, 1.6283195354719043E9, 2021-08-07 00:58:55.471
102.0, 1067283.75, 954259.78125, -1124408.90625, -1053324.46875, 277518.5390625, -768332.25, -76854.416015625, -381229.8984375, 69693.451171875, 639932.203125, -1132659.375, -1252417.40625, 473703.890625, 395776.078125, -690988.078125, -637951.125, 0.020000001415610313, 0.503000020980835, 0.015000000596046448, 192.0, 0.0, 0.0, 0.0, 0.0, 0.0, 0.0, 0.0, 0.0, 0.0, 1.6283195354719095E9, 2021-08-07 00:58:55.471
104.0, 1067470.5, 954572.53125, -1125160.5, -1054353.375, 295240.4296875, -765719.25, -77409.6328125, -382227.6796875, 71856.38671875, 667580.953125, -1125786.5625, -1222689.375, 471333.890625, 396398.34375, -689134.125, -637577.25, 0.020000001415610313, 0.503000020980835, 0.015000000596046448, 192.0, 0.0, 0.0, 0.0, 0.0, 0.0, 0.0, 0.0, 0.0, 0.0, 1.6283195354719148E9, 2021-08-07 00:58:55.471
106.0, 1067347.59375, 954260.34375, -1124418.09375, -1053258.0, 274964.53125, -770253.796875, -76687.04296875, -381372.0703125, 69513.205078125, 640943.953125, -1132768.875, -1251126.1875, 473580.515625, 395424.140625, -691072.265625, -638174.8125, 0.020000001415610313, 0.503000020980835, 0.015000000596046448, 192.0, 0.0, 0.0, 0.0, 0.0, 0.0, 0.0, 0.0, 0.0, 0.0, 1.62831953547192E9, 2021-08-07 00:58:55.471
108.0, 1067238.1875, 954501.75, -1125336.46875, -1054607.625, 297429.65625, -764030.53125, -77802.3046875, -382413.84375, 71590.845703125, 666134.15625, -1126241.4375, -1224689.25, 471331.734375, 396382.78125, -689289.140625, -637673.765625, 0.020000001415610313, 0.503000020980835, 0.015000000596046448, 192.0, 0.0, 0.0, 0.0, 0.0, 0.0, 0.0, 0.0, 0.0, 0.0, 1.628319535471926E9, 2021-08-07 00:58:55.471
110.0, 1067449.03125, 954302.15625, -1124084.90625, -1052960.25, 273018.328125, -771950.015625, -76067.455078125, -380464.40625, 69687.017578125, 643203.421875, -1132489.875, -1248786.1875, 473402.4375, 395442.421875, -690791.203125, -637999.96875, 0.03000000212341547, 0.7575000524520874, 0.024500001221895218, 192.0, 0.5, 32.0, 15.5, 80.0, 0.5, 8.0, 0.0, 0.0, 0.0, 1.6283195354719312E9, 2021-08-07 00:58:55.471
112.0, 1066727.53125, 954245.25, -1125611.625, -1054902.65625, 298388.8125, -762531.1875, -78301.734375, -383187.9140625, 71230.359375, 663857.53125, -1126836.84375, -1227665.4375, 471206.25, 396342.0, -689565.9375, -637635.703125, 0.03000000212341547, 0.7575000524520874, 0.024500001221895218, 192.0, 0.0, 0.0, 0.0, 0.0, 0.0, 0.0, 0.0, 0.0, 0.0, 1.6283195354719408E9, 2021-08-07 00:58:55.471
114.0, 1067341.21875, 954172.875, -1124232.46875, -1053196.3125, 272081.15625, -773305.078125, -76189.224609375, -380630.6953125, 69563.09765625, 645754.734375, -1132164.28125, -1246037.4375, 472817.71875, 395091.046875, -691019.71875, -638290.171875, 0.03000000212341547, 0.7575000524520874, 0.024500001221895218, 192.0, 0.0, 0.0, 0.0, 0.0, 0.0, 0.0, 0.0, 0.0, 0.0, 1.628319535471946E9, 2021-08-07 00:58:55.471
116.0, 1066754.8125, 954397.125, -1125581.0625, -1054947.1875, 299117.296875, -761258.71875, -78668.66015625, -383089.21875, 70983.05859375, 660912.984375, -1127459.15625, -1230979.03125, 471304.40625, 396289.453125, -690057.328125, -637741.359375, 0.03000000212341547, 0.7575000524520874, 0.024500001221895218, 192.0, 0.0, 0.0, 0.0, 0.0, 0.0, 0.0, 0.0, 0.0, 0.0, 1.6283195354719508E9, 2021-08-07 00:58:55.471
118.0, 1068134.53125, 954904.03125, -1123593.5625, -1052583.65625, 272425.546875, -773852.765625, -75609.333984375, -380111.953125, 70064.671875, 649284.0, -1131134.8125, -1242147.1875, 472888.5, 395559.890625, -690467.71875, -637960.265625, 0.03000000212341547, 0.7575000524520874, 0.024500001221895218, 192.0, 0.0, 0.0, 0.0, 0.0, 0.0, 0.0, 0.0, 0.0, 0.0, 1.6283195354719558E9, 2021-08-07 00:58:55.471
120.0, 1066854.65625, 954637.96875, -1125337.5, -1054744.96875, 298682.765625, -760282.40625, -78892.892578125, -383159.484375, 71084.443359375, 657959.859375, -1127671.03125, -1234490.53125, 472059.1875, 396828.046875, -689728.5, -637332.09375, 0.031000001821666956, 0.8857500553131104, 0.030250001698732376, 192.0, 0.5, 0.0, 15.5, 88.0, 0.5, 16.0, 0.0, 0.0, 0.0, 1.6283195354719613E9, 2021-08-07 00:58:55.471
122.0, 1067995.125, 954547.875, -1123838.15625, -1052900.15625, 272977.546875, -774783.515625, -75742.904296875, -380499.28125, 70324.306640625, 652677.515625, -1130351.625, -1238429.15625, 472728.09375, 395371.59375, -690338.4375, -638021.390625, 0.031000001821666956, 0.8857500553131104, 0.030250001698732376, 192.0, 0.0, 0.0, 0.0, 0.0, 0.0, 0.0, 0.0, 0.0, 0.0, 1.6283195354719663E9, 2021-08-07 00:58:55.471
124.0, 1066266.65625, 953943.28125, -1125858.9375, -1055199.375, 297440.3671875, -760497.515625, -79219.048828125, -383643.3515625, 70617.744140625, 653714.484375, -1128784.6875, -1238796.0, 472113.328125, 396075.9375, -690307.875, -637891.59375, 0.031000001821666956, 0.8857500553131104, 0.030250001698732376, 192.0, 0.0, 0.0, 0.0, 0.0, 0.0, 0.0, 0.0, 0.0, 0.0, 1.6283195354719713E9, 2021-08-07 00:58:55.471
126.0, 1068014.4375, 954489.9375, -1123941.65625, -1053070.78125, 274734.3984375, -775186.359375, -75462.345703125, -380555.6015625, 70119.92578125, 655686.984375, -1129712.15625, -1234693.875, 471965.8125, 394732.6875, -690316.453125, -638468.25, 0.031000001821666956, 0.8857500553131104, 0.030250001698732376, 192.0, 0.0, 0.0, 0.0, 0.0, 0.0, 0.0, 0.0, 0.0, 0.0, 1.628319535471976E9, 2021-08-07 00:58:55.471
128.0, 1066320.84375, 954063.9375, -1125522.5625, -1054882.875, 294988.2890625, -760733.015625, -78808.669921875, -383169.6796875, 70229.35546875, 649779.140625, -1129590.9375, -1243000.125, 472664.296875, 396114.046875, -690270.84375, -637727.4375, 0.031000001821666956, 0.8857500553131104, 0.030250001698732376, 192.0, 0.0, 0.0, 0.0, 0.0, 0.0, 0.0, 0.0, 0.0, 0.0, 1.6283195354719818E9, 2021-08-07 00:58:55.471
130.0, 1067937.65625, 954540.375, -1124009.25, -1053204.28125, 277013.203125, -774512.0625, -75558.369140625, -380512.6875, 70202.537109375, 659260.734375, -1128789.5625, -1230919.5, 471746.953125, 394899.0, -690003.140625, -638244.5625, 0.026500001782551408, 0.9448750615119934, 0.03412500210106373, 192.0, 0.0, 88.0, 15.5, 48.0, 0.5, 24.0, 0.0, 0.0, 0.0, 1.6283195354719868E9, 2021-08-07 00:58:55.471
132.0, 1065999.5625, 953742.09375, -1125732.375, -1055088.84375, 292261.03125, -761394.984375, -79127.3203125, -383509.2421875, 69598.5, 646426.359375, -1130554.40625, -1246688.15625, 472748.484375, 395941.3125, -690662.4375, -637764.46875, 0.026500001782551408, 0.9448750615119934, 0.03412500210106373, 192.0, 0.0, 0.0, 0.0, 0.0, 0.0, 0.0, 0.0, 0.0, 0.0, 1.628319535471996E9, 2021-08-07 00:58:55.471
134.0, 1067635.6875, 954279.09375, -1124392.3125, -1053668.34375, 279831.6796875, -773834.015625, -76048.67578125, -380925.75, 70109.197265625, 662381.25, -1128158.625, -1227931.5, 471187.453125, 394861.96875, -690099.703125, -638348.625, 0.026500001782551408, 0.9448750615119934, 0.03412500210106373, 192.0, 0.0, 0.0, 0.0, 0.0, 0.0, 0.0, 0.0, 0.0, 0.0, 1.6283195354720013E9, 2021-08-07 00:58:55.472
136.0, 1066349.8125, 954018.9375, -1125196.96875, -1054527.1875, 288828.8671875, -762248.4375, -78453.544921875, -382754.484375, 69400.01953125, 643410.515625, -1131465.84375, -1250121.9375, 473088.046875, 395793.234375, -690943.546875, -637783.78125, 0.026500001782551408, 0.9448750615119934, 0.03412500210106373, 192.0, 0.0, 0.0, 0.0, 0.0, 0.0, 0.0, 0.0, 0.0, 0.0, 1.6283195354720063E9, 2021-08-07 00:58:55.472
138.0, 1067707.59375, 954438.375, -1124370.28125, -1053706.40625, 283213.9453125, -772326.046875, -75994.5, -381100.1015625, 70690.16015625, 665168.0625, -1127186.625, -1225168.78125, 471346.21875, 395271.796875, -689579.34375, -637939.875, 0.026500001782551408, 0.9448750615119934, 0.03412500210106373, 192.0, 0.0, 0.0, 0.0, 0.0, 0.0, 0.0, 0.0, 0.0, 0.0, 1.6283195354720116E9, 2021-08-07 00:58:55.472
140.0, 1066137.375, 953831.71875, -1125268.3125, -1054491.75, 285720.1875, -763864.21875, -78332.30859375, -382807.0546875, 69109.265625, 641269.546875, -1132108.5, -1252300.40625, 473249.015625, 395592.609375, -691011.65625, -637843.828125, 0.019250000943429768, 0.9724375307559967, 0.03706250246614218, 192.0, 0.0, 48.0, 15.5, 32.0, 0.5, 32.0, 0.0, 0.0, 0.0, 1.6283195354720163E9, 2021-08-07 00:58:55.472
142.0, 1067787.0, 954669.09375, -1124506.59375, -1053822.28125, 286841.3671875, -770782.171875, -76337.818359375, -381416.0625, 70640.2734375, 666978.515625, -1126739.25, -1223559.46875, 471055.5, 395391.984375, -689399.671875, -637888.921875, 0.019250000943429768, 0.9724375307559967, 0.03706250246614218, 192.0, 0.0, 0.0, 0.0, 0.0, 0.0, 0.0, 0.0, 0.0, 0.0, 1.6283195354720216E9, 2021-08-07 00:58:55.472
144.0, 1066671.1875, 954131.0625, -1124953.96875, -1054100.15625, 282188.7890625, -765462.796875, -77977.189453125, -382445.484375, 69151.646484375, 640029.84375, -1132351.5, -1253620.59375, 473615.390625, 395757.28125, -691008.984375, -637774.640625, 0.019250000943429768, 0.9724375307559967, 0.03706250246614218, 192.0, 0.0, 0.0, 0.0, 0.0, 0.0, 0.0, 0.0, 0.0, 0.0, 1.6283195354720263E9, 2021-08-07 00:58:55.472
146.0, 1067578.78125, 954517.21875, -1124977.59375, -1054294.875, 290199.4921875, -768974.390625, -77147.30859375, -381999.703125, 71086.59375, 667922.671875, -1126172.71875, -1222855.125, 471103.78125, 395627.484375, -689455.96875, -637918.40625, 0.019250000943429768, 0.9724375307559967, 0.03706250246614218, 192.0, 0.0, 0.0, 0.0, 0.0, 0.0, 0.0, 0.0, 0.0, 0.0, 1.6283195354720316E9, 2021-08-07 00:58:55.472
148.0, 1066947.46875, 954187.875, -1124713.125, -1053787.40625, 279043.1015625, -767320.5, -77446.646484375, -382117.7109375, 69137.162109375, 639478.359375, -1132639.03125, -1253895.28125, 473642.765625, 395468.15625, -691236.421875, -638078.8125, 0.019250000943429768, 0.9724375307559967, 0.03706250246614218, 192.0, 0.0, 0.0, 0.0, 0.0, 0.0, 0.0, 0.0, 0.0, 0.0, 1.6283195354720364E9, 2021-08-07 00:58:55.472
150.0, 1067484.375, 954457.6875, -1125017.8125, -1054445.625, 293310.3046875, -767015.296875, -77450.935546875, -382434.75, 71161.693359375, 667841.109375, -1125900.28125, -1222907.15625, 471079.078125, 395924.671875, -689441.484375, -637789.125, 0.010000000707805157, 0.9920000433921814, 0.03800000250339508, 192.0, 0.0, 40.0, 15.5, 0.0, 0.5, 24.0, 0.0, 0.0, 0.0, 1.6283195354720414E9, 2021-08-07 00:58:55.472
152.0, 1067100.84375, 954168.0, -1124308.59375, -1053482.15625, 276012.75, -769124.015625, -77003.54296875, -381555.0, 69131.794921875, 639841.546875, -1132736.15625, -1253129.71875, 473736.609375, 395395.734375, -691233.234375, -638121.703125, 0.010000000707805157, 0.9920000433921814, 0.03800000250339508, 192.0, 0.0, 0.0, 0.0, 0.0, 0.0, 0.0, 0.0, 0.0, 0.0, 1.6283195354720464E9, 2021-08-07 00:58:55.472
154.0, 1067469.375, 954688.96875, -1124901.9375, -1054409.71875, 295777.40625, -764982.1875, -77678.923828125, -382434.75, 70966.4296875, 666900.75, -1126066.03125, -1224192.46875, 471101.625, 396154.265625, -689413.59375, -637582.078125, 0.010000000707805157, 0.9920000433921814, 0.03800000250339508, 192.0, 0.0, 0.0, 0.0, 0.0, 0.0, 0.0, 0.0, 0.0, 0.0, 1.6283195354720511E9, 2021-08-07 00:58:55.472
156.0, 1067290.78125, 954156.75, -1124059.6875, -1053313.78125, 273693.703125, -770898.046875, -76615.16015625, -381448.78125, 69180.076171875, 641471.8125, -1132537.125, -1251281.15625, 473797.21875, 395579.203125, -690860.390625, -637873.359375, 0.010000000707805157, 0.9920000433921814, 0.03800000250339508, 192.0, 0.0, 0.0, 0.0, 0.0, 0.0, 0.0, 0.0, 0.0, 0.0, 1.6283195354720562E9, 2021-08-07 00:58:55.472
158.0, 1066927.59375, 954260.8125, -1125377.71875, -1055003.53125, 297666.75, -763624.453125, -78404.197265625, -383360.109375, 70686.404296875, 664808.109375, -1126621.21875, -1226489.53125, 471179.953125, 395954.71875, -689682.375, -637914.09375, 0.010000000707805157, 0.9920000433921814, 0.03800000250339508, 192.0, 0.0, 0.0, 0.0, 0.0, 0.0, 0.0, 0.0, 0.0, 0.0, 1.6283195354720612E9, 2021-08-07 00:58:55.472
160.0, 1067541.84375, 954337.59375, -1123804.875, -1053046.03125, 272293.0546875, -772643.109375, -76155.427734375, -380859.7734375, 69094.78125, 643633.125, -1132468.96875, -1248772.21875, 473520.421875, 395438.109375, -690991.828125, -638131.359375, 0.006000000052154064, 0.9920000433921814, 0.03200000151991844, 192.0, 0.0, 24.0, 15.5, 0.0, 0.5, 0.0, 0.0, 0.0, 0.0, 1.6283195354720664E9, 2021-08-07 00:58:55.472
162.0, 1067046.09375, 954430.40625, -1125069.28125, -1054693.5, 298683.84375, -762051.046875, -78146.701171875, -383229.234375, 70844.654296875, 662725.640625, -1126961.90625, -1229181.375, 471878.90625, 396597.375, -689494.59375, -637420.59375, 0.006000000052154064, 0.9920000433921814, 0.03200000151991844, 192.0, 0.0, 0.0, 0.0, 0.0, 0.0, 0.0, 0.0, 0.0, 0.0, 1.6283195354720712E9, 2021-08-07 00:58:55.472
164.0, 1067690.90625, 954206.15625, -1123829.0625, -1053017.0625, 271641.28125, -773903.71875, -75869.5078125, -380598.515625, 69331.353515625, 646461.796875, -1131880.5, -1245123.375, 473468.953125, 395331.890625, -690675.84375, -637983.328125, 0.006000000052154064, 0.9920000433921814, 0.03200000151991844, 192.0, 0.0, 0.0, 0.0, 0.0, 0.0, 0.0, 0.0, 0.0, 0.0, 1.628319535472076E9, 2021-08-07 00:58:55.472
166.0, 1066707.65625, 954194.34375, -1125578.34375, -1055116.21875, 298820.6484375, -761146.078125, -78746.443359375, -383444.34375, 70559.806640625, 659174.90625, -1127757.375, -1232663.4375, 472048.96875, 396397.265625, -689863.6875, -637567.59375, 0.006000000052154064, 0.9920000433921814, 0.03200000151991844, 192.0, 0.0, 0.0, 0.0, 0.0, 0.0, 0.0, 0.0, 0.0, 0.0, 1.6283195354720829E9, 2021-08-07 00:58:55.472
168.0, 1068107.71875, 954418.03125, -1123834.96875, -1053010.125, 272162.15625, -774582.890625, -75521.89453125, -380503.03125, 69713.8359375, 649549.546875, -1131080.15625, -1241304.46875, 473282.8125, 395264.859375, -690478.96875, -638046.609375, 0.006000000052154064, 0.9920000433921814, 0.03200000151991844, 192.0, 0.0, 0.0, 0.0, 0.0, 0.0, 0.0, 0.0, 0.0, 0.0, 1.628319535472088E9, 2021-08-07 00:58:55.472
170.0, 1066862.15625, 954153.0, -1125687.84375, -1055179.5, 298152.234375, -760479.796875, -78697.08984375, -383311.8515625, 70546.39453125, 655460.0625, -1128273.46875, -1236420.65625, 472505.484375, 396378.46875, -689964.515625, -637611.5625, 0.006000000052154064, 1.00600004196167, 0.024000000208616257, 192.0, 0.0, 24.0, 15.5, 56.0, 0.0, 96.0, 0.0, 0.0, 0.0, 1.628319535472093E9, 2021-08-07 00:58:55.472
172.0, 1068180.1875, 954381.0, -1124206.125, -1053407.625, 273185.6953125, -775141.3125, -75410.314453125, -380653.2421875, 70075.400390625, 653240.25, -1130267.90625, -1237179.75, 472903.546875, 395309.90625, -690143.15625, -638048.765625, 0.006000000052154064, 1.00600004196167, 0.024000000208616257, 192.0, 0.0, 0.0, 0.0, 0.0, 0.0, 0.0, 0.0, 0.0, 0.0, 1.628319535472098E9, 2021-08-07 00:58:55.472
174.0, 1066579.96875, 954011.4375, -1126125.0, -1055564.15625, 296495.15625, -760480.875, -78936.345703125, -383411.0859375, 70273.34765625, 652006.96875, -1129410.1875, -1240484.71875, 472642.828125, 396225.609375, -690295.5, -637888.921875, 0.006000000052154064, 1.00600004196167, 0.024000000208616257, 192.0, 0.0, 0.0, 0.0, 0.0, 0.0, 0.0, 0.0, 0.0, 0.0, 1.6283195354721029E9, 2021-08-07 00:58:55.472
176.0, 1068157.125, 954368.625, -1124451.28125, -1053666.1875, 275399.578125, -774767.953125, -75402.263671875, -380396.2734375, 70242.234375, 657138.5625, -1129494.375, -1233109.21875, 472444.3125, 395182.78125, -690064.828125, -638150.15625, 0.006000000052154064, 1.00600004196167, 0.024000000208616257, 192.0, 0.0, 0.0, 0.0, 0.0, 0.0, 0.0, 0.0, 0.0, 0.0, 1.628319535472108E9, 2021-08-07 00:58:55.472
178.0, 1066691.53125, 953999.0625, -1126009.6875, -1055408.53125, 294340.8046875, -760530.234375, -78652.564453125, -383209.3828125, 70115.630859375, 648557.109375, -1130145.09375, -1243990.96875, 473016.1875, 396313.03125, -690400.125, -637766.0625, 0.006000000052154064, 1.00600004196167, 0.024000000208616257, 192.0, 0.0, 0.0, 0.0, 0.0, 0.0, 0.0, 0.0, 0.0, 0.0, 1.628319535472113E9, 2021-08-07 00:58:55.472
180.0, 1068197.34375, 954346.125, -1124797.3125, -1053929.625, 278170.3125, -774108.65625, -75722.51953125, -380672.015625, 70588.775390625, 660646.359375, -1128526.125, -1229085.375, 472114.96875, 395540.578125, -689837.390625, -638105.109375, 0.00800000037997961, 1.0080000162124634, 0.026000000536441803, 192.0, 0.0, 32.0, 15.5, 64.0, 0.0, 104.0, 0.0, 0.0, 0.0, 1.628319535472118E9, 2021-08-07 00:58:55.472
182.0, 1066686.1875, 953961.46875, -1126168.5, -1055301.84375, 291319.03125, -761368.6875, -78642.9140625, -382809.1875, 69925.1953125, 645276.234375, -1130889.65625, -1247371.03125, 473323.03125, 396516.375, -690747.1875, -637773.5625, 0.00800000037997961, 1.0080000162124634, 0.026000000536441803, 192.0, 0.0, 0.0, 0.0, 0.0, 0.0, 0.0, 0.0, 0.0, 0.0, 1.628319535472123E9, 2021-08-07 00:58:55.472
184.0, 1068453.75, 954695.34375, -1124992.59375, -1053959.625, 281157.2109375, -772886.109375, -75553.0078125, -380353.359375, 70973.40234375, 663460.03125, -1127572.875, -1226032.5, 471938.484375, 395849.015625, -689640.515625, -637999.96875, 0.00800000037997961, 1.0080000162124634, 0.026000000536441803, 192.0, 0.0, 0.0, 0.0, 0.0, 0.0, 0.0, 0.0, 0.0, 0.0, 1.6283195354721277E9, 2021-08-07 00:58:55.472
186.0, 1066590.1875, 953797.40625, -1126386.28125, -1055403.75, 287968.96875, -762645.421875, -78587.12109375, -382974.421875, 69837.755859375, 642606.375, -1131463.6875, -1250086.5, 473776.3125, 396432.140625, -690855.046875, -637851.328125, 0.00800000037997961, 1.0080000162124634, 0.026000000536441803, 192.0, 0.0, 0.0, 0.0, 0.0, 0.0, 0.0, 0.0, 0.0, 0.0, 1.6283195354721327E9, 2021-08-07 00:58:55.472
188.0, 1067874.9375, 954201.84375, -1125764.53125, -1054771.3125, 284581.3359375, -771856.6875, -76310.4609375, -381322.7109375, 70853.77734375, 665580.5625, -1127192.53125, -1223881.875, 471455.15625, 395497.640625, -689772.46875, -638502.609375, 0.00800000037997961, 1.0080000162124634, 0.026000000536441803, 192.0, 0.0, 0.0, 0.0, 0.0, 0.0, 0.0, 0.0, 0.0, 0.0, 1.6283195354721377E9, 2021-08-07 00:58:55.472
190.0, 1066869.65625, 953903.0625, -1126246.21875, -1055067.375, 284358.703125, -764316.421875, -78003.474609375, -382311.9140625, 69421.4765625, 640423.03125, -1132370.8125, -1252174.40625, 473778.984375, 395895.140625, -691226.765625, -638275.125, 0.010000000707805157, 1.0080000162124634, 0.018000001087784767, 192.0, 0.0, 40.0, 15.5, 64.0, 0.0, 72.0, 0.0, 0.0, 0.0, 1.6283195354721425E9, 2021-08-07 00:58:55.472
192.0, 1068367.40625, 954764.0625, -1125526.875, -1054471.40625, 287992.03125, -769789.78125, -76106.080078125, -381037.8515625, 71613.375, 667459.734375, -1126172.25, -1222317.09375, 471931.5, 396181.078125, -689238.1875, -637874.4375, 0.010000000707805157, 1.0080000162124634, 0.018000001087784767, 192.0, 0.0, 0.0, 0.0, 0.0, 0.0, 0.0, 0.0, 0.0, 0.0, 1.6283195354721475E9, 2021-08-07 00:58:55.472
194.0, 1067061.1875, 953927.71875, -1126108.875, -1054848.0, 280942.640625, -765946.171875, -77541.59765625, -381766.8984375, 69593.138671875, 639589.40625, -1132419.09375, -1252941.46875, 474118.03125, 396035.15625, -690997.734375, -637832.0625, 0.010000000707805157, 1.0080000162124634, 0.018000001087784767, 192.0, 0.0, 0.0, 0.0, 0.0, 0.0, 0.0, 0.0, 0.0, 0.0, 1.6283195354721525E9, 2021-08-07 00:58:55.472
196.0, 1067768.71875, 954173.90625, -1126251.09375, -1055352.75, 291135.046875, -768346.171875, -76994.96484375, -382010.9765625, 71317.798828125, 667671.09375, -1126196.90625, -1222137.9375, 471489.46875, 395721.328125, -689525.71875, -638179.125, 0.010000000707805157, 1.0080000162124634, 0.018000001087784767, 192.0, 0.0, 0.0, 0.0, 0.0, 0.0, 0.0, 0.0, 0.0, 0.0, 1.6283195354721577E9, 2021-08-07 00:58:55.472
198.0, 1067211.9375, 953913.1875, -1125893.25, -1054792.21875, 277821.09375, -767903.109375, -77064.1640625, -381896.1796875, 69307.751953125, 639378.609375, -1132899.75, -1253029.40625, 474039.703125, 395406.984375, -691175.8125, -638409.234375, 0.00600000040140003, 1.0110000371932983, 0.018000001087784767, 192.0, 0.0, 8.0, 15.5, 88.0, 0.0, 72.0, 0.0, 0.0, 0.0, 1.6283195354721625E9, 2021-08-07 00:58:55.472
200.0, 1067807.90625, 954451.78125, -1126369.125, -1055573.25, 293983.546875, -766338.28125, -77481.515625, -382318.359375, 71343.544921875, 667353.515625, -1126018.21875, -1222679.71875, 471484.125, 395812.546875, -689490.84375, -638156.0625, 0.00600000040140003, 1.0110000371932983, 0.018000001087784767, 192.0, 0.0, 0.0, 0.0, 0.0, 0.0, 0.0, 0.0, 0.0, 0.0, 1.6283195354721692E9, 2021-08-07 00:58:55.472
202.0, 1067561.15625, 954109.03125, -1125743.625, -1054596.9375, 274907.1328125, -769813.921875, -76929.515625, -381321.09375, 69324.380859375, 640161.28125, -1132738.78125, -1252097.625, 474130.921875, 395278.78125, -691160.25, -638398.5, 0.00600000040140003, 1.0110000371932983, 0.018000001087784767, 192.0, 0.0, 0.0, 0.0, 0.0, 0.0, 0.0, 0.0, 0.0, 0.0, 1.6283195354721742E9, 2021-08-07 00:58:55.472
204.0, 1067579.90625, 954358.5, -1126744.03125, -1055918.71875, 296276.296875, -764630.8125, -77864.537109375, -382627.875, 71127.896484375, 666202.828125, -1126120.21875, -1224468.75, 471522.75, 395916.09375, -689612.109375, -638149.078125, 0.00600000040140003, 1.0110000371932983, 0.018000001087784767, 192.0, 0.0, 0.0, 0.0, 0.0, 0.0, 0.0, 0.0, 0.0, 0.0, 1.6283195354721792E9, 2021-08-07 00:58:55.472
206.0, 1067670.0, 954146.625, -1125671.15625, -1054530.9375, 272901.9140625, -771596.484375, -76477.294921875, -381081.84375, 69279.85546875, 641956.21875, -1132490.4375, -1250213.625, 474041.859375, 395162.90625, -691039.03125, -638473.078125, 0.00600000040140003, 1.0110000371932983, 0.018000001087784767, 192.0, 0.0, 0.0, 0.0, 0.0, 0.0, 0.0, 0.0, 0.0, 0.0, 1.628319535472184E9, 2021-08-07 00:58:55.472
208.0, 1067486.53125, 954475.96875, -1126914.65625, -1056100.59375, 297989.15625, -762907.734375, -78477.15234375, -383230.3125, 71085.521484375, 664047.421875, -1126511.25, -1227091.40625, 471833.859375, 395953.078125, -689709.703125, -638201.109375, 1.7462298274040222E-10, 1.011500060558319, 0.020000001415610313, 192.0, 127.5, 104.0, 15.5, 80.0, 0.0, 88.0, 0.0, 0.0, 0.0, 1.628319535472189E9, 2021-08-07 00:58:55.472
210.0, 1067834.71875, 954121.875, -1125779.53125, -1054593.75, 271774.8515625, -773091.0, -76345.330078125, -381151.0546875, 69685.939453125, 644550.421875, -1131855.84375, -1247462.8125, 473936.71875, 395047.03125, -690956.390625, -638595.375, 1.7462298274040222E-10, 1.011500060558319, 0.020000001415610313, 192.0, 0.0, 0.0, 0.0, 0.0, 0.0, 0.0, 0.0, 0.0, 0.0, 1.628319535472194E9, 2021-08-07 00:58:55.472
212.0, 1066881.46875, 954001.21875, -1127489.15625, -1056647.71875, 298611.421875, -761875.640625, -78911.666015625, -383515.1484375, 70866.111328125, 661154.90625, -1127110.96875, -1230553.03125, 471781.828125, 395629.078125, -690197.90625, -638361.515625, 1.7462298274040222E-10, 1.011500060558319, 0.020000001415610313, 192.0, 0.0, 0.0, 0.0, 0.0, 0.0, 0.0, 0.0, 0.0, 0.0, 1.628319535472199E9, 2021-08-07 00:58:55.472
214.0, 1067898.0, 954197.53125, -1125742.5, -1054551.84375, 271290.984375, -774414.984375, -75916.7109375, -380733.703125, 69632.296875, 647249.8125, -1131572.0625, -1244328.9375, 473365.40625, 394590.515625, -691052.4375, -638760.09375, 1.7462298274040222E-10, 1.011500060558319, 0.020000001415610313, 192.0, 0.0, 0.0, 0.0, 0.0, 0.0, 0.0, 0.0, 0.0, 0.0, 1.628319535472204E9, 2021-08-07 00:58:55.472
216.0, 1066999.96875, 954347.71875, -1127153.34375, -1056423.46875, 298243.4296875, -761053.265625, -78575.3203125, -383330.625, 70634.90625, 657862.21875, -1127800.3125, -1234465.3125, 472215.796875, 395655.890625, -690157.640625, -638237.0625, 1.7462298274040222E-10, 1.011500060558319, 0.020000001415610313, 192.0, 0.0, 0.0, 0.0, 0.0, 0.0, 0.0, 0.0, 0.0, 0.0, 1.6283195354722087E9, 2021-08-07 00:58:55.472
218.0, 1067902.875, 954151.96875, -1125612.1875, -1054595.8125, 271750.7109375, -775269.515625, -75529.400390625, -380457.9609375, 69856.529296875, 650843.953125, -1130656.3125, -1240577.53125, 473363.8125, 394748.765625, -690367.921875, -638396.90625, -0.011000000784406438, 1.006750077009201, 0.01900000125169754, 192.0, 127.5, 40.0, 15.5, 40.0, 0.0, 72.0, 0.0, 0.0, 0.0, 1.628319535472214E9, 2021-08-07 00:58:55.472
220.0, 1066501.125, 953877.28125, -1127375.4375, -1056763.125, 297115.2890625, -760934.71875, -78933.662109375, -383693.25, 70167.12890625, 654138.28125, -1128807.75, -1238532.65625, 472486.171875, 395497.640625, -690260.625, -638250.984375, -0.011000000784406438, 1.006750077009201, 0.01900000125169754, 192.0, 0.0, 0.0, 0.0, 0.0, 0.0, 0.0, 0.0, 0.0, 0.0, 1.6283195354722188E9, 2021-08-07 00:58:55.472
0.0, -251149.1953125, -153769.98046875, -162789.71484375, -217927.8984375, -183740.98828125, -204736.2421875, -206438.390625, -231768.09375, 34371.9755859375, 320477.34375, -566742.75, -625633.359375, 236887.359375, 196944.421875, -345680.9765625, -319521.9375, -0.004000000189989805, 1.0, 0.05400000140070915, 192.0, 127.5, 112.0, 15.5, 32.0, 0.5, 88.0, 0.0, 0.0, 0.0, 1.6283195360698807E9, 2021-08-07 00:58:56.069
2.0, -502545.703125, -307682.6484375, -325738.21875, -436040.296875, -367582.828125, -409591.59375, -413014.078125, -463684.78125, -543.9520111083984, -419257.734375, -418614.0, -427079.0625, -477279.84375, -1606793.625, -472251.75, -562336.96875, -0.004000000189989805, 1.0, 0.05400000140070915, 192.0, 0.0, 0.0, 0.0, 0.0, 0.0, 0.0, 0.0, 0.0, 0.0, 1.628319536069886E9, 2021-08-07 00:58:56.069
4.0, -502736.671875, -307770.6328125, -325809.0234375, -436173.375, -367707.8203125, -409717.125, -413116.546875, -463775.4375, -543.9520111083984, -419322.65625, -418683.1875, -427126.265625, -477345.28125, -1607198.0625, -472314.515625, -562409.90625, -0.004000000189989805, 1.0, 0.05400000140070915, 192.0, 0.0, 0.0, 0.0, 0.0, 0.0, 0.0, 0.0, 0.0, 0.0, 1.6283195360698905E9, 2021-08-07 00:58:56.069
6.0, -503046.1875, -307947.65625, -325998.3984375, -436400.25, -367854.796875, -409865.15625, -413285.53125, -463956.75, -545.0249176025391, -419484.09375, -418830.1875, -427289.34375, -477513.1875, -1607684.0625, -472450.21875, -562572.984375, 0.0020000000949949026, 1.0, 0.0670000035315752, 192.0, 0.0, 32.0, 15.5, 32.0, 1.0, 64.0, 0.0, 0.0, 0.0, 1.6283195360698943E9, 2021-08-07 00:58:56.069
8.0, -503301.5625, -308097.328125, -326134.640625, -436596.609375, -368035.59375, -410051.34375, -413453.4375, -464110.171875, -542.879150390625, -419556.515625, -418908.515625, -427344.609375, -477587.71875, -1608109.875, -472533.9375, -562664.71875, 0.0020000000949949026, 1.0, 0.0670000035315752, 192.0, 0.0, 0.0, 0.0, 0.0, 0.0, 0.0, 0.0, 0.0, 0.0, 1.6283195360698984E9, 2021-08-07 00:58:56.069
10.0, -503610.515625, -308279.1796875, -326327.2265625, -436831.03125, -368191.1484375, -410207.953125, -413626.6875, -464295.234375, -542.879150390625, -419774.859375, -419108.0625, -427562.90625, -477807.703125, -1608637.875, -472705.59375, -562869.140625, 0.0020000000949949026, 1.0, 0.0670000035315752, 192.0, 0.0, 0.0, 0.0, 0.0, 0.0, 0.0, 0.0, 0.0, 0.0, 1.6283195360699024E9, 2021-08-07 00:58:56.069
12.0, -503876.0625, -308435.296875, -326473.1484375, -437035.96875, -368370.8671875, -410400.5625, -413799.984375, -464457.796875, -543.4156036376953, -419833.359375, -419174.0625, -427601.53125, -477868.828125, -1609062.75, -472790.859375, -562959.234375, 0.0020000000949949026, 1.0, 0.0670000035315752, 192.0, 0.0, 0.0, 0.0, 0.0, 0.0, 0.0, 0.0, 0.0, 0.0, 1.6283195360699067E9, 2021-08-07 00:58:56.069
14.0, -504181.3125, -308616.0703125, -326660.90625, -437265.5625, -368532.8671875, -410557.171875, -413970.5625, -464640.703125, -543.9520111083984, -420074.71875, -419392.921875, -427844.578125, -478109.71875, -1609600.125, -472974.890625, -563177.015625, 0.0020000000949949026, 1.0, 0.0670000035315752, 192.0, 0.0, 0.0, 0.0, 0.0, 0.0, 0.0, 0.0, 0.0, 0.0, 1.6283195360699315E9, 2021-08-07 00:58:56.069
16.0, -504442.546875, -308767.875, -326801.9765625, -437464.03125, -368696.484375, -410737.96875, -414136.3125, -464793.609375, -543.9520111083984, -420130.546875, -419456.765625, -427876.734375, -478173.515625, -1610030.4375, -473068.734375, -563274.65625, 0.0070000000996515155, 1.0040000081062317, 0.07750000525265932, 192.0, 0.0, 48.0, 15.5, 64.0, 1.0, 96.0, 0.0, 0.0, 0.0, 1.628319536069935E9, 2021-08-07 00:58:56.069
18.0, -504751.03125, -308951.8828125, -326992.4296875, -437699.015625, -368877.796875, -410908.546875, -414314.953125, -464985.65625, -544.4884643554688, -420349.40625, -419654.71875, -428096.671875, -478387.03125, -1610537.4375, -473218.40625, -563459.71875, 0.0070000000996515155, 1.0040000081062317, 0.07750000525265932, 192.0, 0.0, 0.0, 0.0, 0.0, 0.0, 0.0, 0.0, 0.0, 0.0, 1.6283195360699391E9, 2021-08-07 00:58:56.069
20.0, -505036.40625, -309127.828125, -327164.0859375, -437924.296875, -369054.8203125, -411106.5, -414504.328125, -465164.8125, -542.879150390625, -420411.09375, -419724.984375, -428138.53125, -478462.125, -1610986.3125, -473326.78125, -563573.484375, 0.0070000000996515155, 1.0040000081062317, 0.07750000525265932, 192.0, 0.0, 0.0, 0.0, 0.0, 0.0, 0.0, 0.0, 0.0, 0.0, 1.6283195360699432E9, 2021-08-07 00:58:56.069
22.0, -505315.875, -309285.0, -327318.046875, -438127.59375, -369216.8203125, -411254.015625, -414655.078125, -465325.734375, -542.879150390625, -420666.421875, -419961.0, -428397.09375, -478709.953125, -1611521.25, -473507.015625, -563786.953125, 0.0070000000996515155, 1.0040000081062317, 0.07750000525265932, 192.0, 0.0, 0.0, 0.0, 0.0, 0.0, 0.0, 0.0, 0.0, 0.0, 1.6283195360699472E9, 2021-08-07 00:58:56.069
24.0, -505557.28125, -309411.0703125, -327446.25, -438303.046875, -369336.46875, -411398.34375, -414796.6875, -465455.015625, -542.879150390625, -420663.234375, -419966.390625, -428372.953125, -478718.015625, -1611906.375, -473555.296875, -563840.0625, 0.0070000000996515155, 1.0040000081062317, 0.07750000525265932, 192.0, 0.0, 0.0, 0.0, 0.0, 0.0, 0.0, 0.0, 0.0, 0.0, 1.6283195360699513E9, 2021-08-07 00:58:56.069
26.0, -505889.34375, -309625.640625, -327655.453125, -438565.359375, -369564.4453125, -411609.703125, -415004.8125, -465672.28125, -544.4884643554688, -420933.046875, -420220.125, -428643.84375, -478980.890625, -1612456.125, -473747.90625, -564066.984375, 0.009500000101979822, 1.0090000331401825, 0.08075000578537583, 192.0, 0.0, 48.0, 15.5, 88.0, 1.0, 80.0, 0.0, 0.0, 0.0, 1.628319536069955E9, 2021-08-07 00:58:56.069
28.0, -506174.203125, -309793.03125, -327826.0546875, -438784.734375, -369716.25, -411785.109375, -415182.9375, -465846.65625, -545.0249176025391, -420996.328125, -420282.328125, -428687.296875, -479056.5, -1612908.375, -473862.140625, -564186.609375, 0.009500000101979822, 1.0090000331401825, 0.08075000578537583, 192.0, 0.0, 0.0, 0.0, 0.0, 0.0, 0.0, 0.0, 0.0, 0.0, 1.6283195360699599E9, 2021-08-07 00:58:56.069
30.0, -506498.71875, -310004.90625, -328030.96875, -439042.78125, -369952.2890625, -412003.96875, -415392.140625, -466059.609375, -545.0249176025391, -421234.546875, -420507.09375, -428928.703125, -479285.578125, -1613427.1875, -474026.296875, -564384.5625, 0.009500000101979822, 1.0090000331401825, 0.08075000578537583, 192.0, 0.0, 0.0, 0.0, 0.0, 0.0, 0.0, 0.0, 0.0, 0.0, 1.6283195360699637E9, 2021-08-07 00:58:56.069
32.0, -506788.40625, -310170.6796875, -328204.78125, -439261.125, -370091.2265625, -412167.5625, -415563.796875, -466232.859375, -543.4156036376953, -421343.953125, -420617.0625, -429018.28125, -479409.515625, -1613918.0625, -474180.28125, -564546.5625, 0.009500000101979822, 1.0090000331401825, 0.08075000578537583, 192.0, 0.0, 0.0, 0.0, 0.0, 0.0, 0.0, 0.0, 0.0, 0.0, 1.6283195360699675E9, 2021-08-07 00:58:56.069
34.0, -507026.0625, -310300.5, -328322.25, -439436.015625, -370249.4765625, -412314.046875, -415694.15625, -466364.296875, -543.4156036376953, -421521.0, -420781.21875, -429189.9375, -479576.34375, -1614383.0625, -474289.6875, -564683.34375, 0.009500000101979822, 1.0090000331401825, 0.08075000578537583, 192.0, 0.0, 0.0, 0.0, 0.0, 0.0, 0.0, 0.0, 0.0, 0.0, 1.6283195360699728E9, 2021-08-07 00:58:56.069
36.0, -507286.21875, -310432.453125, -328465.5, -439620.515625, -370350.8671875, -412435.265625, -415832.015625, -466500.0, -542.879150390625, -421560.703125, -420815.578125, -429213.0, -479628.890625, -1614800.4375, -474367.5, -564771.328125, 0.022750001138774678, 1.0125000327825546, 0.08337500435300171, 192.0, 0.5, 16.0, 15.5, 96.0, 1.0, 88.0, 0.0, 0.0, 0.0, 1.6283195360699768E9, 2021-08-07 00:58:56.069
38.0, -507552.84375, -310593.9375, -328611.3984375, -439826.53125, -370552.03125, -412620.890625, -416002.078125, -466665.234375, -543.9520111083984, -421754.34375, -421002.796875, -429401.859375, -479813.953125, -1615284.9375, -474501.046875, -564932.296875, 0.022750001138774678, 1.0125000327825546, 0.08337500435300171, 192.0, 0.0, 0.0, 0.0, 0.0, 0.0, 0.0, 0.0, 0.0, 0.0, 1.6283195360699806E9, 2021-08-07 00:58:56.069
40.0, -507866.671875, -310779.5390625, -328810.96875, -440065.21875, -370700.625, -412791.46875, -416189.8125, -466857.84375, -543.4156036376953, -421859.484375, -421100.390625, -429494.671875, -479932.546875, -1615756.875, -474628.734375, -565079.8125, 0.022750001138774678, 1.0125000327825546, 0.08337500435300171, 192.0, 0.0, 0.0, 0.0, 0.0, 0.0, 0.0, 0.0, 0.0, 0.0, 1.6283195360699847E9, 2021-08-07 00:58:56.069
42.0, -508102.6875, -310907.7421875, -328925.765625, -440240.109375, -370867.9921875, -412948.640625, -416325.0, -466988.71875, -543.9520111083984, -422007.515625, -421243.125, -429631.453125, -480069.328125, -1616206.5, -474732.796875, -565203.1875, 0.022750001138774678, 1.0125000327825546, 0.08337500435300171, 192.0, 0.0, 0.0, 0.0, 0.0, 0.0, 0.0, 0.0, 0.0, 0.0, 1.6283195360699885E9, 2021-08-07 00:58:56.069
44.0, -508385.390625, -311063.859375, -329093.671875, -440449.875, -370986.0234375, -413083.3125, -416480.578125, -467151.28125, -545.0249176025391, -422118.046875, -421343.953125, -429735.515625, -480190.03125, -1616673.1875, -474855.65625, -565346.390625, 0.022750001138774678, 1.0125000327825546, 0.08337500435300171, 192.0, 0.0, 0.0, 0.0, 0.0, 0.0, 0.0, 0.0, 0.0, 0.0, 1.6283195360699923E9, 2021-08-07 00:58:56.069
46.0, -508690.125, -311265.0234375, -329279.2734375, -440698.265625, -371229.0234375, -413318.765625, -416693.53125, -467355.09375, -543.9520111083984, -422267.71875, -421492.546875, -429870.703125, -480334.875, -1617136.125, -474974.203125, -565479.421875, 0.04037500159756746, 1.0092500373721123, 0.08768750599119812, 192.0, 0.5, 104.0, 15.5, 56.0, 1.0, 112.0, 0.0, 0.0, 0.0, 1.6283195360699964E9, 2021-08-07 00:58:56.069
48.0, -509004.984375, -311446.875, -329475.0703125, -440931.046875, -371373.328125, -413474.90625, -416870.015625, -467543.390625, -543.4156036376953, -422495.15625, -421703.90625, -430093.875, -480571.96875, -1617703.6875, -475195.21875, -565726.734375, 0.04037500159756746, 1.0092500373721123, 0.08768750599119812, 192.0, 0.0, 0.0, 0.0, 0.0, 0.0, 0.0, 0.0, 0.0, 0.0, 1.6283195360700016E9, 2021-08-07 00:58:56.070
50.0, -509199.1875, -311543.4375, -329554.9921875, -441072.140625, -371510.109375, -413609.015625, -416981.0625, -467641.03125, -543.9520111083984, -422539.171875, -421752.1875, -430121.765625, -480612.75, -1618071.75, -475225.78125, -565768.59375, 0.04037500159756746, 1.0092500373721123, 0.08768750599119812, 192.0, 0.0, 0.0, 0.0, 0.0, 0.0, 0.0, 0.0, 0.0, 0.0, 1.6283195360700057E9, 2021-08-07 00:58:56.070
52.0, -509537.671875, -311749.96875, -329776.0078125, -441331.265625, -371680.7109375, -413788.6875, -417181.171875, -467855.0625, -543.4156036376953, -422722.078125, -421921.171875, -430302.515625, -480801.046875, -1618578.5625, -475389.421875, -565960.640625, 0.04037500159756746, 1.0092500373721123, 0.08768750599119812, 192.0, 0.0, 0.0, 0.0, 0.0, 0.0, 0.0, 0.0, 0.0, 0.0, 1.6283195360700095E9, 2021-08-07 00:58:56.070
54.0, -509797.3125, -311905.5234375, -329917.640625, -441534.5625, -371868.46875, -413981.8125, -417352.828125, -468011.203125, -543.9520111083984, -422820.234375, -422023.078125, -430382.484375, -480898.125, -1619013.75, -475487.578125, -566070.609375, 0.04037500159756746, 1.0092500373721123, 0.08768750599119812, 192.0, 0.0, 0.0, 0.0, 0.0, 0.0, 0.0, 0.0, 0.0, 0.0, 1.6283195360700133E9, 2021-08-07 00:58:56.070
56.0, -510106.828125, -312085.78125, -330111.8203125, -441765.234375, -372021.3515625, -414136.3125, -417525.046875, -468198.375, -543.4156036376953, -423021.9375, -422207.625, -430586.296875, -481102.5, -1619523.75, -475656.0, -566268.5625, 0.06599999964237213, 0.9980000257492065, 0.10000000149011612, 192.0, 1.0, 8.0, 15.5, 24.0, 1.5, 16.0, 0.0, 0.0, 0.0, 1.628319536070017E9, 2021-08-07 00:58:56.070
58.0, -510400.265625, -312275.1328125, -330286.7109375, -442000.734375, -372237.5390625, -414360.5625, -417728.859375, -468390.984375, -545.0249176025391, -423137.296875, -422328.328125, -430678.59375, -481220.53125, -1619991.0, -475786.921875, -566405.859375, 0.06599999964237213, 0.9980000257492065, 0.10000000149011612, 192.0, 0.0, 0.0, 0.0, 0.0, 0.0, 0.0, 0.0, 0.0, 0.0, 1.6283195360700212E9, 2021-08-07 00:58:56.070
60.0, -510680.859375, -312426.9609375, -330448.7109375, -442206.1875, -372370.5703125, -414488.765625, -417874.265625, -468549.234375, -544.4884643554688, -423348.65625, -422520.375, -430894.21875, -481432.96875, -1620504.375, -475947.84375, -566600.0625, 0.06599999964237213, 0.9980000257492065, 0.10000000149011612, 192.0, 0.0, 0.0, 0.0, 0.0, 0.0, 0.0, 0.0, 0.0, 0.0, 1.6283195360700252E9, 2021-08-07 00:58:56.070
62.0, -510932.4375, -312575.5546875, -330584.4375, -442400.390625, -372535.8046875, -414666.84375, -418035.1875, -468696.75, -543.9520111083984, -423374.390625, -422551.5, -430899.046875, -481466.765625, -1620891.75, -476004.140625, -566662.828125, 0.06599999964237213, 0.9980000257492065, 0.10000000149011612, 192.0, 0.0, 0.0, 0.0, 0.0, 0.0, 0.0, 0.0, 0.0, 0.0, 1.628319536070029E9, 2021-08-07 00:58:56.070
64.0, -511266.09375, -312782.6015625, -330796.3359375, -442654.640625, -372731.6015625, -414855.703125, -418234.21875, -468909.1875, -543.9520111083984, -423635.109375, -422791.828125, -431161.359375, -481721.015625, -1621440.0, -476203.171875, -566894.0625, 0.06599999964237213, 0.9980000257492065, 0.10000000149011612, 192.0, 0.0, 0.0, 0.0, 0.0, 0.0, 0.0, 0.0, 0.0, 0.0, 1.6283195360700328E9, 2021-08-07 00:58:56.070
66.0, -511552.546875, -312959.109375, -330969.0703125, -442882.078125, -372917.203125, -415060.078125, -418426.78125, -469087.265625, -544.4884643554688, -423704.296875, -422867.4375, -431207.53125, -481798.828125, -1621884.75, -476311.546875, -567008.859375, 0.04800000041723251, 0.9800000190734863, 0.09200000762939453, 192.0, 0.5, 64.0, 15.0, 80.0, 1.0, 112.0, 0.0, 0.0, 0.0, 1.628319536070037E9, 2021-08-07 00:58:56.070
68.0, -511835.8125, -313122.1875, -331132.1484375, -443092.40625, -373077.609375, -415210.265625, -418580.765625, -469255.171875, -545.0249176025391, -423953.203125, -423095.4375, -431460.1875, -482041.265625, -1622415.1875, -476486.953125, -567220.734375, 0.04800000041723251, 0.9800000190734863, 0.09200000762939453, 192.0, 0.0, 0.0, 0.0, 0.0, 0.0, 0.0, 0.0, 0.0, 0.0, 1.6283195360700407E9, 2021-08-07 00:58:56.070
70.0, -512071.828125, -313243.9453125, -331248.5390625, -443264.0625, -373199.3671875, -415350.84375, -418715.90625, -469380.1875, -542.879150390625, -423972.515625, -423123.890625, -431458.03125, -482072.390625, -1622817.5625, -476554.03125, -567292.078125, 0.04800000041723251, 0.9800000190734863, 0.09200000762939453, 192.0, 0.0, 0.0, 0.0, 0.0, 0.0, 0.0, 0.0, 0.0, 0.0, 1.6283195360700448E9, 2021-08-07 00:58:56.070
72.0, -512422.125, -313475.15625, -331479.2109375, -443541.9375, -373437.5625, -415577.765625, -418943.90625, -469615.125, -544.4884643554688, -424216.078125, -423348.65625, -431705.34375, -482310.046875, -1623337.3125, -476724.046875, -567495.375, 0.04800000041723251, 0.9800000190734863, 0.09200000762939453, 192.0, 0.0, 0.0, 0.0, 0.0, 0.0, 0.0, 0.0, 0.0, 0.0, 1.6283195360700486E9, 2021-08-07 00:58:56.070
74.0, -512658.703125, -313597.9921875, -331604.203125, -443711.953125, -373546.9921875, -415711.3125, -419079.09375, -469741.21875, -543.9520111083984, -424278.84375, -423415.6875, -431743.96875, -482382.984375, -1623785.8125, -476836.171875, -567612.328125, 0.04800000041723251, 0.9800000190734863, 0.09200000762939453, 192.0, 0.0, 0.0, 0.0, 0.0, 0.0, 0.0, 0.0, 0.0, 0.0, 1.6283195360700526E9, 2021-08-07 00:58:56.070
76.0, -512950.5, -313776.6328125, -331775.34375, -443937.28125, -373744.9453125, -415892.109375, -419253.984375, -469922.53125, -543.9520111083984, -424494.46875, -423618.984375, -431963.34375, -482590.078125, -1624282.125, -476979.9375, -567786.703125, 0.03400000184774399, 0.9580000638961792, 0.07800000160932541, 192.0, 0.5, 8.0, 14.5, 120.0, 1.0, 56.0, 0.0, 0.0, 0.0, 1.6283195360700564E9, 2021-08-07 00:58:56.070
78.0, -513256.3125, -313960.640625, -331966.3125, -444167.953125, -373908.5625, -416078.25, -419444.953125, -470109.1875, -544.4884643554688, -424565.8125, -423693.046875, -432014.34375, -482674.265625, -1624740.1875, -477096.375, -567912.1875, 0.03400000184774399, 0.9580000638961792, 0.07800000160932541, 192.0, 0.0, 0.0, 0.0, 0.0, 0.0, 0.0, 0.0, 0.0, 0.0, 1.6283195360700605E9, 2021-08-07 00:58:56.070
80.0, -513513.234375, -314105.484375, -332100.421875, -444362.671875, -374080.7578125, -416234.90625, -419591.390625, -470257.78125, -545.5613708496094, -424787.390625, -423902.25, -432238.03125, -482887.78125, -1625244.0, -477247.078125, -568094.0625, 0.03400000184774399, 0.9580000638961792, 0.07800000160932541, 192.0, 0.0, 0.0, 0.0, 0.0, 0.0, 0.0, 0.0, 0.0, 0.0, 1.6283195360700643E9, 2021-08-07 00:58:56.070
82.0, -513797.015625, -314264.7890625, -332272.6171875, -444575.109375, -374212.171875, -416391.515625, -419757.140625, -470425.6875, -545.5613708496094, -424864.078125, -423977.90625, -432297.5625, -482979.0, -1625699.8125, -477367.265625, -568223.34375, 0.03400000184774399, 0.9580000638961792, 0.07800000160932541, 192.0, 0.0, 0.0, 0.0, 0.0, 0.0, 0.0, 0.0, 0.0, 0.0, 1.628319536070072E9, 2021-08-07 00:58:56.070
84.0, -514009.453125, -314370.46875, -332367.0234375, -444726.375, -374351.6484375, -416517.046875, -419866.078125, -470533.546875, -543.9520111083984, -424987.453125, -424088.390625, -432415.03125, -483092.15625, -1626108.1875, -477426.28125, -568306.5, 0.03400000184774399, 0.9580000638961792, 0.07800000160932541, 192.0, 0.0, 0.0, 0.0, 0.0, 0.0, 0.0, 0.0, 0.0, 0.0, 1.6283195360700758E9, 2021-08-07 00:58:56.070
86.0, -514368.328125, -314604.375, -332612.1796875, -445013.390625, -374553.3515625, -416737.546875, -420104.25, -470775.984375, -543.9520111083984, -425121.5625, -424219.828125, -432538.40625, -483241.3125, -1626617.8125, -477596.34375, -568490.484375, 0.020000001415610313, 0.984000027179718, 0.06000000238418579, 192.0, 0.0, 80.0, 15.0, 96.0, 0.5, 112.0, 0.0, 0.0, 0.0, 1.6283195360700796E9, 2021-08-07 00:58:56.070
88.0, -514605.46875, -314735.7890625, -332729.1328125, -445190.953125, -374725.546875, -416894.71875, -420241.03125, -470906.90625, -544.4884643554688, -425315.765625, -424405.96875, -432724.59375, -483426.890625, -1627103.8125, -477736.3125, -568652.484375, 0.020000001415610313, 0.984000027179718, 0.06000000238418579, 192.0, 0.0, 0.0, 0.0, 0.0, 0.0, 0.0, 0.0, 0.0, 0.0, 1.6283195360700855E9, 2021-08-07 00:58:56.070
90.0, -514921.96875, -314920.3359375, -332929.21875, -445428.609375, -374873.6015625, -417060.46875, -420426.09375, -471099.46875, -543.9520111083984, -425409.09375, -424493.390625, -432809.34375, -483534.75, -1627563.0, -477852.75, -568785.515625, 0.020000001415610313, 0.984000027179718, 0.06000000238418579, 192.0, 0.0, 0.0, 0.0, 0.0, 0.0, 0.0, 0.0, 0.0, 0.0, 1.6283195360700896E9, 2021-08-07 00:58:56.070
92.0, -515188.546875, -315084.4921875, -333075.140625, -445638.328125, -375076.3828125, -417258.9375, -420600.46875, -471264.703125, -544.4884643554688, -425591.484375, -424673.109375, -432981.515625, -483708.5625, -1628053.3125, -477994.921875, -568949.15625, 0.020000001415610313, 0.984000027179718, 0.06000000238418579, 192.0, 0.0, 0.0, 0.0, 0.0, 0.0, 0.0, 0.0, 0.0, 0.0, 1.6283195360700934E9, 2021-08-07 00:58:56.070
94.0, -515467.5, -315234.6796875, -333239.2734375, -445840.03125, -375186.3515625, -417384.46875, -420746.34375, -471422.953125, -545.5613708496094, -425728.3125, -424799.15625, -433111.875, -483856.078125, -1628542.5, -478135.96875, -569111.671875, 0.01900000125169754, 0.9880000352859497, 0.05300000309944153, 192.0, 0.0, 72.0, 15.5, 0.0, 0.5, 56.0, 0.0, 0.0, 0.0, 1.6283195360700972E9, 2021-08-07 00:58:56.070
96.0, -515699.765625, -315363.9609375, -333355.6875, -446014.359375, -375359.0859375, -417552.375, -420887.4375, -471554.390625, -543.9520111083984, -425808.234375, -424880.71875, -433178.953125, -483931.6875, -1628944.875, -478190.71875, -569183.578125, 0.01900000125169754, 0.9880000352859497, 0.05300000309944153, 192.0, 0.0, 0.0, 0.0, 0.0, 0.0, 0.0, 0.0, 0.0, 0.0, 1.6283195360701013E9, 2021-08-07 00:58:56.070
98.0, -516027.5625, -315562.453125, -333564.9140625, -446262.75, -375520.03125, -417722.4375, -421080.5625, -471758.203125, -544.4884643554688, -425991.140625, -425051.859375, -433360.78125, -484123.734375, -1629466.3125, -478367.203125, -569383.125, 0.01900000125169754, 0.9880000352859497, 0.05300000309944153, 192.0, 0.0, 0.0, 0.0, 0.0, 0.0, 0.0, 0.0, 0.0, 0.0, 1.6283195360701053E9, 2021-08-07 00:58:56.070
100.0, -516289.875, -315721.2421875, -333707.6015625, -446469.28125, -375715.828125, -417916.640625, -421255.96875, -471920.765625, -543.4156036376953, -426114.515625, -425175.75, -433465.921875, -484244.4375, -1629921.75, -478482.515625, -569509.734375, 0.01900000125169754, 0.9880000352859497, 0.05300000309944153, 192.0, 0.0, 0.0, 0.0, 0.0, 0.0, 0.0, 0.0, 0.0, 0.0, 1.6283195360701091E9, 2021-08-07 00:58:56.070
102.0, -516605.296875, -315907.3828125, -333909.3046875, -446706.9375, -375871.3828125, -418078.640625, -421432.453125, -472113.328125, -543.9520111083984, -426299.0625, -425342.0625, -433652.0625, -484434.328125, -1630426.5, -478640.765625, -569695.359375, 0.01900000125169754, 0.9880000352859497, 0.05300000309944153, 192.0, 0.0, 0.0, 0.0, 0.0, 0.0, 0.0, 0.0, 0.0, 0.0, 1.628319536070113E9, 2021-08-07 00:58:56.070
104.0, -516822.5625, -316021.640625, -334010.15625, -446868.375, -376016.765625, -418230.984375, -421564.96875, -472229.203125, -545.0249176025391, -426378.46875, -425426.8125, -433712.71875, -484513.734375, -1630852.875, -478727.15625, -569789.765625, 0.0205000014975667, 1.0020000338554382, 0.05050000175833702, 192.0, 0.0, 88.0, 15.5, 96.0, 0.5, 64.0, 0.0, 0.0, 0.0, 1.628319536070118E9, 2021-08-07 00:58:56.070
106.0, -517150.3125, -316222.265625, -334219.359375, -447116.765625, -376193.7890625, -418406.390625, -421757.015625, -472436.8125, -543.4156036376953, -426571.03125, -425601.703125, -433906.359375, -484710.09375, -1631356.125, -478881.65625, -569974.3125, 0.0205000014975667, 1.0020000338554382, 0.05050000175833702, 192.0, 0.0, 0.0, 0.0, 0.0, 0.0, 0.0, 0.0, 0.0, 0.0, 1.6283195360701218E9, 2021-08-07 00:58:56.070
108.0, -517436.25, -316402.5234375, -334387.8046875, -447347.953125, -376396.5703125, -418620.984375, -421955.484375, -472618.6875, -543.4156036376953, -426670.265625, -425706.28125, -433984.125, -484813.078125, -1631814.1875, -479002.359375, -570100.875, 0.0205000014975667, 1.0020000338554382, 0.05050000175833702, 192.0, 0.0, 0.0, 0.0, 0.0, 0.0, 0.0, 0.0, 0.0, 0.0, 1.6283195360701256E9, 2021-08-07 00:58:56.070
110.0, -517689.46875, -316531.265625, -334522.9921875, -447524.484375, -376507.6171875, -418727.71875, -422074.59375, -472754.390625, -544.4884643554688, -426876.796875, -425893.5, -434191.734375, -485016.375, -1632316.3125, -479154.703125, -570288.09375, 0.0205000014975667, 1.0020000338554382, 0.05050000175833702, 192.0, 0.0, 0.0, 0.0, 0.0, 0.0, 0.0, 0.0, 0.0, 0.0, 1.6283195360701296E9, 2021-08-07 00:58:56.070
112.0, -517964.109375, -316698.09375, -334683.9140625, -447740.109375, -376691.0859375, -418921.921875, -422256.421875, -472922.296875, -543.9520111083984, -426912.234375, -425936.953125, -434206.21875, -485061.984375, -1632719.25, -479225.484375, -570365.90625, 0.0205000014975667, 1.0020000338554382, 0.05050000175833702, 192.0, 0.0, 0.0, 0.0, 0.0, 0.0, 0.0, 0.0, 0.0, 0.0, 1.6283195360701337E9, 2021-08-07 00:58:56.070
114.0, -518286.515625, -316898.71875, -334887.7734375, -447990.65625, -376884.1875, -419104.828125, -422450.109375, -473127.75, -543.4156036376953, -427165.96875, -426171.9375, -434464.78125, -485312.484375, -1633257.75, -479416.453125, -570588.0, 0.03425000095739961, 1.0180000364780426, 0.055250002071261406, 192.0, 0.5, 64.0, 16.0, 40.0, 0.5, 112.0, 0.0, 0.0, 0.0, 1.6283195360701375E9, 2021-08-07 00:58:56.070
116.0, -518562.234375, -317064.4921875, -335048.15625, -448204.6875, -377054.25, -419296.359375, -422630.859375, -473296.21875, -543.4156036376953, -427239.984375, -426252.9375, -434517.890625, -485397.796875, -1633705.6875, -479534.484375, -570711.375, 0.03425000095739961, 1.0180000364780426, 0.055250002071261406, 192.0, 0.0, 0.0, 0.0, 0.0, 0.0, 0.0, 0.0, 0.0, 0.0, 1.6283195360701447E9, 2021-08-07 00:58:56.070
118.0, -518814.375, -317198.6015625, -335181.75, -448384.359375, -377189.9765625, -419419.21875, -422758.546875, -473436.234375, -544.4884643554688, -427436.859375, -426430.5, -434716.359375, -485584.5, -1634178.375, -479662.171875, -570870.140625, 0.03425000095739961, 1.0180000364780426, 0.055250002071261406, 192.0, 0.0, 0.0, 0.0, 0.0, 0.0, 0.0, 0.0, 0.0, 0.0, 1.6283195360701485E9, 2021-08-07 00:58:56.070
120.0, -519098.15625, -317369.71875, -335350.7109375, -448603.78125, -377354.6484375, -419606.953125, -422940.9375, -473608.96875, -543.4156036376953, -427500.703125, -426499.6875, -434758.78125, -485661.1875, -1634621.4375, -479773.21875, -570984.9375, 0.03425000095739961, 1.0180000364780426, 0.055250002071261406, 192.0, 0.0, 0.0, 0.0, 0.0, 0.0, 0.0, 0.0, 0.0, 0.0, 1.6283195365514648E9, 2021-08-07 00:58:56.551
122.0, -519388.875, -317544.609375, -335520.7734375, -448827.46875, -377543.484375, -419780.765625, -423109.921875, -473790.796875, -543.9520111083984, -427720.125, -426699.796875, -434976.5625, -485870.390625, -1635113.4375, -479919.09375, -571163.578125, 0.03425000095739961, 1.0180000364780426, 0.055250002071261406, 192.0, 0.0, 0.0, 0.0, 0.0, 0.0, 0.0, 0.0, 0.0, 0.0, 1.628319536551611E9, 2021-08-07 00:58:56.551
124.0, -519702.1875, -317741.484375, -335722.4765625, -449076.375, -377726.953125, -419985.703125, -423320.203125, -473991.984375, -543.9520111083984, -427815.046875, -426800.109375, -435054.328125, -485977.171875, -1635589.125, -480062.859375, -571313.25, 0.05412500095553696, 1.025000050663948, 0.06762500386685133, 192.0, 1.0, 40.0, 16.0, 32.0, 1.0, 64.0, 0.0, 0.0, 0.0, 1.6283195365516152E9, 2021-08-07 00:58:56.551
126.0, -519967.171875, -317895.4453125, -335866.2421875, -449277.0, -377900.7421875, -420145.03125, -423471.46875, -474151.3125, -545.0249176025391, -428043.046875, -427013.0625, -435283.921875, -486196.546875, -1636089.75, -480217.921875, -571502.0625, 0.05412500095553696, 1.025000050663948, 0.06762500386685133, 192.0, 0.0, 0.0, 0.0, 0.0, 0.0, 0.0, 0.0, 0.0, 0.0, 1.6283195365516193E9, 2021-08-07 00:58:56.551
128.0, -520261.171875, -318067.1015625, -336046.4765625, -449500.734375, -378050.953125, -420319.875, -423650.109375, -474327.234375, -543.9520111083984, -428103.65625, -427072.640625, -435324.703125, -486270.046875, -1636525.3125, -480324.65625, -571614.75, 0.05412500095553696, 1.025000050663948, 0.06762500386685133, 192.0, 0.0, 0.0, 0.0, 0.0, 0.0, 0.0, 0.0, 0.0, 0.0, 1.628319536551623E9, 2021-08-07 00:58:56.551
130.0, -520474.125, -318173.859375, -336143.0390625, -449652.0, -378186.6796875, -420437.90625, -423755.8125, -474436.125, -542.879150390625, -428289.796875, -427245.375, -435507.609375, -486443.34375, -1636990.3125, -480441.609375, -571761.703125, 0.05412500095553696, 1.025000050663948, 0.06762500386685133, 192.0, 0.0, 0.0, 0.0, 0.0, 0.0, 0.0, 0.0, 0.0, 0.0, 1.6283195365516272E9, 2021-08-07 00:58:56.551
132.0, -520789.546875, -318365.3671875, -336345.8203125, -449898.75, -378347.6015625, -420625.125, -423955.875, -474637.3125, -544.4884643554688, -428352.5625, -427303.828125, -435554.296875, -486521.109375, -1637423.8125, -480541.921875, -571874.90625, 0.05412500095553696, 1.025000050663948, 0.06762500386685133, 192.0, 0.0, 0.0, 0.0, 0.0, 0.0, 0.0, 0.0, 0.0, 0.0, 1.6283195365516312E9, 2021-08-07 00:58:56.551
134.0, -521046.515625, -318517.7109375, -336481.0078125, -450094.03125, -378532.1484375, -420795.1875, -424112.015625, -474789.65625, -544.4884643554688, -428556.9375, -427500.1875, -435751.171875, -486716.390625, -1637913.0, -480687.84375, -572043.890625, 0.07206250226590782, 1.0195000544190407, 0.0868125050328672, 192.0, 1.0, 104.0, 15.5, 88.0, 1.5, 40.0, 0.0, 0.0, 0.0, 1.6283195365516355E9, 2021-08-07 00:58:56.551
136.0, -521396.8125, -318741.9375, -336717.5625, -450369.75, -378725.2734375, -421006.546875, -424336.78125, -475019.8125, -544.4884643554688, -428677.125, -427615.5, -435861.703125, -486849.9375, -1638398.625, -480833.203125, -572205.890625, 0.07206250226590782, 1.0195000544190407, 0.0868125050328672, 192.0, 0.0, 0.0, 0.0, 0.0, 0.0, 0.0, 0.0, 0.0, 0.0, 1.6283195365516396E9, 2021-08-07 00:58:56.551
138.0, -521590.453125, -318829.921875, -336792.6796875, -450502.78125, -378852.9375, -421122.421875, -424432.265625, -475109.390625, -544.4884643554688, -428847.1875, -427782.328125, -436024.78125, -487013.578125, -1638866.8125, -480960.890625, -572355.5625, 0.07206250226590782, 1.0195000544190407, 0.0868125050328672, 192.0, 0.0, 0.0, 0.0, 0.0, 0.0, 0.0, 0.0, 0.0, 0.0, 1.6283195365516624E9, 2021-08-07 00:58:56.551
140.0, -521943.421875, -319054.1484375, -337030.3125, -450779.0625, -379040.6953125, -421327.875, -424654.359375, -475340.578125, -543.9520111083984, -428958.234375, -427883.203125, -436126.171875, -487136.953125, -1639330.875, -481085.859375, -572499.84375, 0.07206250226590782, 1.0195000544190407, 0.0868125050328672, 192.0, 0.0, 0.0, 0.0, 0.0, 0.0, 0.0, 0.0, 0.0, 0.0, 1.6283195365516748E9, 2021-08-07 00:58:56.551
142.0, -522155.34375, -319165.734375, -337124.7421875, -450937.3125, -379189.828125, -421472.71875, -424777.734375, -475456.453125, -544.4884643554688, -429112.171875, -428034.46875, -436266.703125, -487287.140625, -1639793.8125, -481208.203125, -572639.34375, 0.07206250226590782, 1.0195000544190407, 0.0868125050328672, 192.0, 0.0, 0.0, 0.0, 0.0, 0.0, 0.0, 0.0, 0.0, 0.0, 1.6283195365516946E9, 2021-08-07 00:58:56.551
144.0, -522434.8125, -319318.6171875, -337289.953125, -451140.09375, -379305.1640625, -421600.359375, -424926.84375, -475613.109375, -544.4884643554688, -429210.890625, -428122.453125, -436360.59375, -487394.4375, -1640231.0625, -481309.03125, -572762.71875, 0.10200000554323196, 1.0080000162124634, 0.12400000542402267, 192.0, 1.5, 24.0, 15.5, 64.0, 1.5, 112.0, 0.0, 0.0, 0.0, 1.6283195365517173E9, 2021-08-07 00:58:56.551
146.0, -522679.453125, -319460.25, -337419.234375, -451326.75, -379484.3203125, -421778.484375, -425081.90625, -475756.875, -544.4884643554688, -429321.375, -428236.171875, -436457.671875, -487503.328125, -1640663.4375, -481403.4375, -572872.171875, 0.10200000554323196, 1.0080000162124634, 0.12400000542402267, 192.0, 0.0, 0.0, 0.0, 0.0, 0.0, 0.0, 0.0, 0.0, 0.0, 1.6283195365517216E9, 2021-08-07 00:58:56.551
148.0, -523012.546875, -319664.625, -337634.8828125, -451584.234375, -379657.59375, -421956.5625, -425279.8125, -475968.234375, -544.4884643554688, -429501.09375, -428400.328125, -436632.5625, -487688.953125, -1641165.0, -481564.921875, -573061.5, 0.10200000554323196, 1.0080000162124634, 0.12400000542402267, 192.0, 0.0, 0.0, 0.0, 0.0, 0.0, 0.0, 0.0, 0.0, 0.0, 1.6283195365517263E9, 2021-08-07 00:58:56.551
150.0, -523246.96875, -319797.65625, -337752.9140625, -451763.4375, -379822.2890625, -422126.625, -425425.734375, -476104.5, -545.0249176025391, -429605.71875, -428509.734375, -436720.546875, -487792.453125, -1641601.125, -481670.0625, -573177.375, 0.10200000554323196, 1.0080000162124634, 0.12400000542402267, 192.0, 0.0, 0.0, 0.0, 0.0, 0.0, 0.0, 0.0, 0.0, 0.0, 1.6283195365517368E9, 2021-08-07 00:58:56.551
152.0, -523538.8125, -319962.3515625, -337929.3984375, -451979.0625, -379958.53125, -422265.5625, -425582.390625, -476276.15625, -545.0249176025391, -429798.28125, -428684.625, -436915.265625, -487990.96875, -1642108.5, -481833.140625, -573366.75, 0.10200000554323196, 1.0080000162124634, 0.12400000542402267, 192.0, 0.0, 0.0, 0.0, 0.0, 0.0, 0.0, 0.0, 0.0, 0.0, 1.628319536551741E9, 2021-08-07 00:58:56.551
154.0, -523830.09375, -320150.6484375, -338104.265625, -452212.96875, -380172.5859375, -422487.09375, -425787.328125, -476463.375, -544.4884643554688, -429874.453125, -428765.625, -436966.21875, -488066.578125, -1642532.4375, -481920.046875, -573463.828125, 0.10400000214576721, 1.0080000162124634, 0.1380000114440918, 192.0, 1.5, 32.0, 15.5, 64.0, 2.0, 40.0, 0.0, 0.0, 0.0, 1.6283195365517452E9, 2021-08-07 00:58:56.551
156.0, -524107.453125, -320304.0703125, -338268.9609375, -452416.265625, -380305.6171875, -422614.78125, -425931.09375, -476623.734375, -546.0977783203125, -430096.546875, -428966.8125, -437190.984375, -488290.3125, -1643050.125, -482095.453125, -573671.4375, 0.10400000214576721, 1.0080000162124634, 0.1380000114440918, 192.0, 0.0, 0.0, 0.0, 0.0, 0.0, 0.0, 0.0, 0.0, 0.0, 1.6283195365517492E9, 2021-08-07 00:58:56.551
158.0, -524357.4375, -320449.96875, -338401.4765625, -452608.3125, -380470.3125, -422793.421875, -426093.609375, -476770.734375, -544.4884643554688, -430140.515625, -429018.28125, -437210.8125, -488337.515625, -1643454.0, -482165.71875, -573747.609375, 0.10400000214576721, 1.0080000162124634, 0.1380000114440918, 192.0, 0.0, 0.0, 0.0, 0.0, 0.0, 0.0, 0.0, 0.0, 0.0, 1.6283195365517538E9, 2021-08-07 00:58:56.551
160.0, -524677.125, -320646.3046875, -338603.15625, -452854.03125, -380655.375, -422970.984375, -426281.90625, -476974.59375, -544.4884643554688, -430369.078125, -429229.125, -437443.640625, -488566.03125, -1643976.375, -482339.53125, -573955.21875, 0.10400000214576721, 1.0080000162124634, 0.1380000114440918, 192.0, 0.0, 0.0, 0.0, 0.0, 0.0, 0.0, 0.0, 0.0, 0.0, 1.628319536551758E9, 2021-08-07 00:58:56.551
162.0, -524960.90625, -320820.65625, -338773.7578125, -453078.234375, -380841.515625, -423173.765625, -426475.546875, -477154.3125, -544.4884643554688, -430452.1875, -429320.859375, -437505.328125, -488657.203125, -1644431.4375, -482459.15625, -574080.234375, 0.10400000214576721, 1.0080000162124634, 0.1380000114440918, 192.0, 0.0, 0.0, 0.0, 0.0, 0.0, 0.0, 0.0, 0.0, 0.0, 1.6283195365517635E9, 2021-08-07 00:58:56.551
164.0, -525208.21875, -320948.3203125, -338902.5, -453253.6875, -380967.5859375, -423289.640625, -426596.25, -477286.78125, -544.4884643554688, -430660.359375, -429507.515625, -437715.609375, -488858.90625, -1644920.0625, -482601.328125, -574257.234375, 0.09600000083446503, 0.9800000190734863, 0.14000000059604645, 192.0, 1.5, 0.0, 15.0, 80.0, 2.0, 48.0, 0.0, 0.0, 0.0, 1.6283195365517683E9, 2021-08-07 00:58:56.551
166.0, -525537.046875, -321165.5859375, -339118.1484375, -453521.90625, -381185.390625, -423527.296875, -426827.484375, -477509.953125, -544.4884643554688, -430723.640625, -429577.78125, -437755.875, -488934.0, -1645359.375, -482710.21875, -574370.953125, 0.09600000083446503, 0.9800000190734863, 0.14000000059604645, 192.0, 0.0, 0.0, 0.0, 0.0, 0.0, 0.0, 0.0, 0.0, 0.0, 1.6283195365517728E9, 2021-08-07 00:58:56.551
168.0, -525780.046875, -321290.0390625, -339242.0625, -453694.640625, -381317.8828125, -423646.359375, -426949.21875, -477638.71875, -545.5613708496094, -430980.046875, -429809.53125, -438010.125, -489178.125, -1645888.3125, -482891.015625, -574585.03125, 0.09600000083446503, 0.9800000190734863, 0.14000000059604645, 192.0, 0.0, 0.0, 0.0, 0.0, 0.0, 0.0, 0.0, 0.0, 0.0, 1.628319536551777E9, 2021-08-07 00:58:56.551
170.0, -526087.96875, -321484.2421875, -339436.265625, -453934.40625, -381498.140625, -423853.96875, -427150.921875, -477833.953125, -545.0249176025391, -431003.671875, -429837.984375, -438013.875, -489214.03125, -1646292.375, -482962.359375, -574661.203125, 0.09600000083446503, 0.9800000190734863, 0.14000000059604645, 192.0, 0.0, 0.0, 0.0, 0.0, 0.0, 0.0, 0.0, 0.0, 0.0, 1.6283195365517812E9, 2021-08-07 00:58:56.551
172.0, -526327.21875, -321610.828125, -339559.1015625, -454107.703125, -381641.90625, -423982.171875, -427275.9375, -477969.140625, -543.9520111083984, -431234.34375, -430053.609375, -438247.21875, -489438.796875, -1646800.875, -483124.359375, -574853.25, 0.09600000083446503, 0.9800000190734863, 0.14000000059604645, 192.0, 0.0, 0.0, 0.0, 0.0, 0.0, 0.0, 0.0, 0.0, 0.0, 1.6283195365517936E9, 2021-08-07 00:58:56.551
174.0, -526613.15625, -321779.2734375, -339733.453125, -454328.671875, -381795.84375, -424158.140625, -427455.65625, -478142.4375, -544.4884643554688, -431284.21875, -430107.28125, -438281.015625, -489501.5625, -1647225.1875, -483220.359375, -574957.828125, 0.07600000500679016, 0.9760000705718994, 0.1340000033378601, 192.0, 1.0, 48.0, 15.0, 64.0, 2.0, 24.0, 0.0, 0.0, 0.0, 1.6283195365517988E9, 2021-08-07 00:58:56.551
176.0, -526882.453125, -321939.140625, -339885.2578125, -454534.6875, -381978.7734375, -424326.5625, -427614.984375, -478304.4375, -543.4156036376953, -431489.671875, -430302.515625, -438483.28125, -489699.515625, -1647708.5625, -483357.703125, -575125.734375, 0.07600000500679016, 0.9760000705718994, 0.1340000033378601, 192.0, 0.0, 0.0, 0.0, 0.0, 0.0, 0.0, 0.0, 0.0, 0.0, 1.628319536551803E9, 2021-08-07 00:58:56.551
178.0, -527132.4375, -322068.421875, -340022.6015625, -454715.484375, -382083.9140625, -424451.578125, -427751.203125, -478438.546875, -543.9520111083984, -431548.6875, -430358.34375, -438526.171875, -489773.53125, -1648144.125, -483456.9375, -575234.109375, 0.07600000500679016, 0.9760000705718994, 0.1340000033378601, 192.0, 0.0, 0.0, 0.0, 0.0, 0.0, 0.0, 0.0, 0.0, 0.0, 1.6283195365518072E9, 2021-08-07 00:58:56.551
180.0, -527401.734375, -322230.421875, -340173.328125, -454924.125, -382275.4453125, -424632.328125, -427915.359375, -478604.296875, -543.9520111083984, -431729.484375, -430530.0, -438702.140625, -489944.15625, -1648607.0625, -483577.125, -575381.109375, 0.07600000500679016, 0.9760000705718994, 0.1340000033378601, 192.0, 0.0, 0.0, 0.0, 0.0, 0.0, 0.0, 0.0, 0.0, 0.0, 1.6283195365518117E9, 2021-08-07 00:58:56.551
182.0, -527667.796875, -322374.7265625, -340327.828125, -455120.484375, -382390.7578125, -424764.84375, -428061.28125, -478754.484375, -545.0249176025391, -431812.078125, -430606.171875, -438768.65625, -490038.5625, -1649055.0, -483690.28125, -575508.75, 0.07600000500679016, 0.9760000705718994, 0.1340000033378601, 192.0, 0.0, 0.0, 0.0, 0.0, 0.0, 0.0, 0.0, 0.0, 0.0, 1.628319536551816E9, 2021-08-07 00:58:56.551
184.0, -527926.359375, -322528.1484375, -340466.2265625, -455318.953125, -382577.9765625, -424939.734375, -428222.203125, -478908.984375, -545.0249176025391, -431973.0, -430762.265625, -438924.75, -490194.65625, -1649506.6875, -483800.8125, -575640.703125, 0.06800000369548798, 0.9960000514984131, 0.14800000190734863, 192.0, 1.0, 16.0, 15.5, 16.0, 2.0, 80.0, 0.0, 0.0, 0.0, 1.628319536551824E9, 2021-08-07 00:58:56.551
186.0, -528267.5625, -322742.1796875, -340693.1484375, -455583.421875, -382759.3125, -425139.796875, -428437.875, -479131.078125, -543.9520111083984, -432105.0, -430890.46875, -439048.125, -490340.015625, -1649996.4375, -483955.828125, -575814.515625, 0.06800000369548798, 0.9960000514984131, 0.14800000190734863, 192.0, 0.0, 0.0, 0.0, 0.0, 0.0, 0.0, 0.0, 0.0, 0.0, 1.6283195365518281E9, 2021-08-07 00:58:56.551
188.0, -528483.1875, -322857.0, -340790.765625, -455741.671875, -382908.4453125, -425283.609375, -428561.25, -479245.875, -545.0249176025391, -432254.109375, -431035.3125, -439185.46875, -490481.671875, -1650439.5, -484063.125, -575944.359375, 0.06800000369548798, 0.9960000514984131, 0.14800000190734863, 192.0, 0.0, 0.0, 0.0, 0.0, 0.0, 0.0, 0.0, 0.0, 0.0, 1.6283195365518324E9, 2021-08-07 00:58:56.551
190.0, -528846.375, -323088.7265625, -341039.15625, -456030.84375, -383110.6640625, -425498.71875, -428794.078125, -479488.875, -545.0249176025391, -432407.015625, -431178.5625, -439335.703125, -490647.9375, -1650939.5625, -484229.4375, -576128.90625, 0.06800000369548798, 0.9960000514984131, 0.14800000190734863, 192.0, 0.0, 0.0, 0.0, 0.0, 0.0, 0.0, 0.0, 0.0, 0.0, 1.6283195365518367E9, 2021-08-07 00:58:56.551
192.0, -529058.8125, -323203.5234375, -341136.7734375, -456188.53125, -383260.3359375, -425645.15625, -428919.609375, -479603.15625, -543.4156036376953, -432560.953125, -431331.421875, -439476.75, -490795.453125, -1651407.1875, -484358.71875, -576275.34375, 0.07500000298023224, 0.9970000386238098, 0.14500000327825546, 192.0, 1.0, 72.0, 15.5, 24.0, 2.0, 56.0, 0.0, 0.0, 0.0, 1.6283195365518408E9, 2021-08-07 00:58:56.551
194.0, -529348.5, -323363.9296875, -341313.796875, -456400.96875, -383388.5625, -425778.703125, -429074.625, -479771.578125, -544.4884643554688, -432672.0, -431427.46875, -439582.453125, -490913.484375, -1651847.625, -484459.546875, -576401.390625, 0.07500000298023224, 0.9970000386238098, 0.14500000327825546, 192.0, 0.0, 0.0, 0.0, 0.0, 0.0, 0.0, 0.0, 0.0, 0.0, 1.6283195365518453E9, 2021-08-07 00:58:56.551
196.0, -529547.484375, -323462.625, -341394.28125, -456547.40625, -383521.0546875, -425911.21875, -429187.265625, -479872.453125, -545.5613708496094, -432784.640625, -431542.265625, -439679.015625, -491026.6875, -1652286.5625, -484563.609375, -576516.75, 0.07500000298023224, 0.9970000386238098, 0.14500000327825546, 192.0, 0.0, 0.0, 0.0, 0.0, 0.0, 0.0, 0.0, 0.0, 0.0, 1.6283195365518491E9, 2021-08-07 00:58:56.551
198.0, -529872.046875, -323661.65625, -341605.640625, -456796.3125, -383691.09375, -426087.1875, -429381.46875, -480080.578125, -545.0249176025391, -432909.09375, -431651.15625, -439802.390625, -491155.96875, -1652728.5, -484663.40625, -576644.953125, 0.07500000298023224, 0.9970000386238098, 0.14500000327825546, 192.0, 0.0, 0.0, 0.0, 0.0, 0.0, 0.0, 0.0, 0.0, 0.0, 1.6283195365518534E9, 2021-08-07 00:58:56.551
200.0, -530188.03125, -323871.3984375, -341803.5703125, -457054.875, -383934.65625, -426337.171875, -429607.3125, -480294.09375, -544.4884643554688, -433060.921875, -431806.734375, -439934.34375, -491308.3125, -1653217.6875, -484820.0625, -576811.265625, 0.07500000298023224, 0.9970000386238098, 0.14500000327825546, 192.0, 0.0, 0.0, 0.0, 0.0, 0.0, 0.0, 0.0, 0.0, 0.0, 1.6283195365518577E9, 2021-08-07 00:58:56.551
202.0, -530502.375, -324059.15625, -341999.90625, -457291.453125, -384096.1171875, -426500.765625, -429786.46875, -480487.21875, -545.5613708496094, -433292.671875, -432020.765625, -440167.6875, -491542.734375, -1653756.375, -485018.53125, -577038.703125, 0.08750000223517418, 1.0015000402927399, 0.14150000736117363, 192.0, 1.5, 16.0, 15.5, 56.0, 2.0, 40.0, 0.0, 0.0, 0.0, 1.6283195365518672E9, 2021-08-07 00:58:56.551
204.0, -530701.921875, -324157.8515625, -342085.21875, -457435.21875, -384214.125, -426629.53125, -429901.265625, -480586.96875, -543.9520111083984, -433345.21875, -432080.296875, -440200.40625, -491598.515625, -1654157.0625, -485088.28125, -577117.03125, 0.08750000223517418, 1.0015000402927399, 0.14150000736117363, 192.0, 0.0, 0.0, 0.0, 0.0, 0.0, 0.0, 0.0, 0.0, 0.0, 1.6283195365518718E9, 2021-08-07 00:58:56.551
206.0, -531014.109375, -324346.6875, -342283.6875, -457673.390625, -384389.015625, -426797.953125, -430080.984375, -480782.765625, -544.4884643554688, -433530.84375, -432246.609375, -440386.59375, -491784.65625, -1654632.9375, -485223.46875, -577286.015625, 0.08750000223517418, 1.0015000402927399, 0.14150000736117363, 192.0, 0.0, 0.0, 0.0, 0.0, 0.0, 0.0, 0.0, 0.0, 0.0, 1.628319536551876E9, 2021-08-07 00:58:56.551
208.0, -531247.5, -324475.96875, -342403.8515625, -457849.875, -384531.703125, -426956.203125, -430225.265625, -480913.6875, -543.9520111083984, -433609.6875, -432333.515625, -440445.046875, -491867.296875, -1655067.375, -485332.359375, -577398.09375, 0.08750000223517418, 1.0015000402927399, 0.14150000736117363, 192.0, 0.0, 0.0, 0.0, 0.0, 0.0, 0.0, 0.0, 0.0, 0.0, 1.6283195365518808E9, 2021-08-07 00:58:56.551
210.0, -531548.953125, -324654.609375, -342587.3203125, -458076.796875, -384702.3046875, -427118.203125, -430397.484375, -481099.265625, -544.4884643554688, -433802.8125, -432507.328125, -440638.6875, -492059.859375, -1655545.3125, -485465.90625, -577566.5625, 0.08750000223517418, 1.0015000402927399, 0.14150000736117363, 192.0, 0.0, 0.0, 0.0, 0.0, 0.0, 0.0, 0.0, 0.0, 0.0, 1.6283195365518947E9, 2021-08-07 00:58:56.551
212.0, -531853.125, -324850.9453125, -342780.4453125, -458322.515625, -384906.6796875, -427339.21875, -430609.359375, -481300.453125, -543.9520111083984, -433890.28125, -432600.09375, -440705.765625, -492154.828125, -1655999.8125, -485592.515625, -577696.359375, 0.0917500015348196, 1.0137500315904617, 0.13775000534951687, 192.0, 1.5, 0.0, 16.0, 8.0, 2.0, 24.0, 0.0, 0.0, 0.0, 1.6283195365518992E9, 2021-08-07 00:58:56.551
214.0, -532114.921875, -324995.25, -342924.2109375, -458516.15625, -385051.5234375, -427474.40625, -430752.09375, -481450.125, -543.9520111083984, -434147.203125, -432838.828125, -440965.40625, -492404.8125, -1656530.25, -485783.484375, -577917.9375, 0.0917500015348196, 1.0137500315904617, 0.13775000534951687, 192.0, 0.0, 0.0, 0.0, 0.0, 0.0, 0.0, 0.0, 0.0, 0.0, 1.6283195365519032E9, 2021-08-07 00:58:56.551
216.0, -532344.515625, -325114.3359375, -343041.140625, -458685.65625, -385166.859375, -427610.671875, -430882.453125, -481574.015625, -543.4156036376953, -434138.625, -432836.15625, -440935.875, -492406.96875, -1656891.75, -485818.359375, -577959.234375, 0.0917500015348196, 1.0137500315904617, 0.13775000534951687, 192.0, 0.0, 0.0, 0.0, 0.0, 0.0, 0.0, 0.0, 0.0, 0.0, 1.6283195365519092E9, 2021-08-07 00:58:56.551
218.0, -532651.875, -325308.0, -343229.9765625, -458923.875, -385369.1015625, -427800.046875, -431068.59375, -481769.859375, -543.9520111083984, -434353.734375, -433030.359375, -441147.234375, -492613.453125, -1657381.6875, -485962.6875, -578136.234375, 0.0917500015348196, 1.0137500315904617, 0.13775000534951687, 192.0, 0.0, 0.0, 0.0, 0.0, 0.0, 0.0, 0.0, 0.0, 0.0, 1.62831953655193E9, 2021-08-07 00:58:56.551
220.0, -532936.21875, -325475.3671875, -343400.578125, -459140.578125, -385526.2734375, -427978.125, -431248.828125, -481942.59375, -544.4884643554688, -434470.6875, -433152.09375, -441245.953125, -492742.21875, -1657872.375, -486121.453125, -578304.703125, 0.0917500015348196, 1.0137500315904617, 0.13775000534951687, 192.0, 0.0, 0.0, 0.0, 0.0, 0.0, 0.0, 0.0, 0.0, 0.0, 1.628319536551934E9, 2021-08-07 00:58:56.551
222.0, -533166.890625, -325593.9140625, -343512.140625, -459304.171875, -385661.4609375, -428100.984375, -431365.21875, -482066.484375, -546.0977783203125, -434621.953125, -433287.28125, -441397.21875, -492885.46875, -1658301.0, -486205.6875, -578417.90625, 0.09387500118464231, 1.0008750334382057, 0.14387500565499067, 192.0, 1.5, 0.0, 15.0, 112.0, 2.0, 88.0, 0.0, 0.0, 0.0, 1.6283195365519383E9, 2021-08-07 00:58:56.551
224.0, -533438.859375, -325748.4140625, -343670.390625, -459508.59375, -385796.109375, -428254.921875, -431527.21875, -482226.890625, -544.4884643554688, -434684.203125, -433348.96875, -441442.265625, -492963.234375, -1658735.0625, -486309.75, -578532.140625, 0.09387500118464231, 1.0008750334382057, 0.14387500565499067, 192.0, 0.0, 0.0, 0.0, 0.0, 0.0, 0.0, 0.0, 0.0, 0.0, 1.6283195365519423E9, 2021-08-07 00:58:56.551
226.0, -533724.75, -325927.0546875, -343840.9921875, -459734.953125, -386002.1015625, -428446.453125, -431706.421875, -482407.6875, -544.4884643554688, -434898.234375, -433552.828125, -441654.1875, -493169.25, -1659234.0, -486459.9375, -578711.859375, 0.09387500118464231, 1.0008750334382057, 0.14387500565499067, 192.0, 0.0, 0.0, 0.0, 0.0, 0.0, 0.0, 0.0, 0.0, 0.0, 1.6283195365519464E9, 2021-08-07 00:58:56.551
228.0, -533992.453125, -326071.875, -343993.3359375, -459931.828125, -386121.1875, -428585.390625, -431859.28125, -482555.71875, -544.4884643554688, -434959.40625, -433614.0, -441699.796875, -493243.265625, -1659664.6875, -486557.0625, -578819.671875, 0.09387500118464231, 1.0008750334382057, 0.14387500565499067, 192.0, 0.0, 0.0, 0.0, 0.0, 0.0, 0.0, 0.0, 0.0, 0.0, 1.6283195365519505E9, 2021-08-07 00:58:56.551
230.0, -534285.328125, -326260.7109375, -344168.7421875, -460164.65625, -386340.046875, -428796.1875, -432052.40625, -482747.25, -544.4884643554688, -435163.78125, -433808.71875, -441896.671875, -493436.390625, -1660152.9375, -486704.578125, -578993.484375, 0.09387500118464231, 1.0008750334382057, 0.14387500565499067, 192.0, 0.0, 0.0, 0.0, 0.0, 0.0, 0.0, 0.0, 0.0, 0.0, 1.6283195365519552E9, 2021-08-07 00:58:56.551
232.0, -534567.515625, -326418.9609375, -344339.8828125, -460375.453125, -386468.7890625, -428944.78125, -432213.328125, -482912.484375, -544.4884643554688, -435286.078125, -433925.671875, -442006.078125, -493572.09375, -1660630.3125, -486854.25, -579157.640625, 0.0820000022649765, 0.9620000720024109, 0.14400000870227814, 192.0, 1.0, 72.0, 15.0, 8.0, 2.0, 64.0, 0.0, 0.0, 0.0, 1.6283195365519593E9, 2021-08-07 00:58:56.551
234.0, -534791.765625, -326540.7421875, -344448.234375, -460541.765625, -386625.4453125, -429090.1875, -432343.171875, -483037.453125, -544.4884643554688, -435422.859375, -434057.109375, -442131.09375, -493698.703125, -1661061.5625, -486943.265625, -579269.765625, 0.0820000022649765, 0.9620000720024109, 0.14400000870227814, 192.0, 0.0, 0.0, 0.0, 0.0, 0.0, 0.0, 0.0, 0.0, 0.0, 1.628319536551963E9, 2021-08-07 00:58:56.551
236.0, -535153.828125, -326774.625, -344698.7578125, -460831.96875, -386829.8203125, -429307.453125, -432577.59375, -483278.859375, -544.4884643554688, -435568.265625, -434192.8125, -442269.46875, -493855.359375, -1661554.6875, -487100.484375, -579446.765625, 0.0820000022649765, 0.9620000720024109, 0.14400000870227814, 192.0, 0.0, 0.0, 0.0, 0.0, 0.0, 0.0, 0.0, 0.0, 0.0, 1.6283195365519674E9, 2021-08-07 00:58:56.551
238.0, -535432.265625, -326952.7265625, -344857.546875, -461051.390625, -387039.5859375, -429511.265625, -432764.8125, -483454.78125, -544.4884643554688, -435745.828125, -434365.546875, -442434.703125, -494025.9375, -1662032.0625, -487245.28125, -579608.765625, 0.0820000022649765, 0.9620000720024109, 0.14400000870227814, 192.0, 0.0, 0.0, 0.0, 0.0, 0.0, 0.0, 0.0, 0.0, 0.0, 1.6283195365519714E9, 2021-08-07 00:58:56.551
240.0, -535710.140625, -327104.53125, -345023.8359375, -461254.171875, -387158.671875, -429641.109375, -432915.0, -483614.671875, -545.0249176025391, -435911.578125, -434522.203125, -442598.859375, -494203.5, -1662535.6875, -487413.1875, -579800.8125, 0.0820000022649765, 0.9620000720024109, 0.14400000870227814, 192.0, 0.0, 0.0, 0.0, 0.0, 0.0, 0.0, 0.0, 0.0, 0.0, 1.628319537030914E9, 2021-08-07 00:58:57.030
242.0, -535970.859375, -327263.3203125, -345167.6015625, -461460.703125, -387355.546875, -429835.828125, -433088.296875, -483777.75, -546.0977783203125, -436007.578125, -434620.359375, -442677.703125, -494295.234375, -1662947.8125, -487491.0, -579890.4375, 0.08400000631809235, 0.9780000448226929, 0.12800000607967377, 192.0, 1.0, 80.0, 15.0, 72.0, 2.0, 0.0, 0.0, 0.0, 0.0, 1.6283195370311303E9, 2021-08-07 00:58:57.031
244.0, -536242.828125, -327405.46875, -345324.2578125, -461653.828125, -387468.7265625, -429955.453125, -433227.234375, -483927.9375, -544.4884643554688, -436161.0, -434757.703125, -442827.375, -494456.15625, -1663422.9375, -487629.375, -580055.109375, 0.08400000631809235, 0.9780000448226929, 0.12800000607967377, 192.0, 0.0, 0.0, 0.0, 0.0, 0.0, 0.0, 0.0, 0.0, 0.0, 1.628319537031135E9, 2021-08-07 00:58:57.031
246.0, -536507.296875, -327572.3203125, -345473.90625, -461863.546875, -387667.21875, -430154.484375, -433403.71875, -484093.6875, -543.9520111083984, -436277.4375, -434877.84375, -442928.765625, -494575.78125, -1663869.9375, -487742.0625, -580179.5625, 0.08400000631809235, 0.9780000448226929, 0.12800000607967377, 192.0, 0.0, 0.0, 0.0, 0.0, 0.0, 0.0, 0.0, 0.0, 0.0, 1.6283195370311391E9, 2021-08-07 00:58:57.031
248.0, -536786.25, -327722.5078125, -345636.4453125, -462065.25, -387791.671875, -430281.609375, -433550.15625, -484254.65625, -545.0249176025391, -436446.9375, -435031.828125, -443098.828125, -494749.59375, -1664352.1875, -487883.671875, -580351.78125, 0.08400000631809235, 0.9780000448226929, 0.12800000607967377, 192.0, 0.0, 0.0, 0.0, 0.0, 0.0, 0.0, 0.0, 0.0, 0.0, 1.6283195370311432E9, 2021-08-07 00:58:57.031
250.0, -537083.4375, -327921.0, -345822.0703125, -462308.8125, -388014.8203125, -430509.609375, -433759.359375, -484453.125, -545.0249176025391, -436540.828125, -435133.21875, -443171.25, -494846.15625, -1664786.625, -487986.65625, -580462.265625, 0.08400000631809235, 0.9780000448226929, 0.12800000607967377, 192.0, 0.0, 0.0, 0.0, 0.0, 0.0, 0.0, 0.0, 0.0, 0.0, 1.6283195370311477E9, 2021-08-07 00:58:57.031
252.0, -537361.3125, -328074.421875, -345983.53125, -462510.515625, -388147.875, -430641.5625, -433904.765625, -484612.96875, -545.0249176025391, -436754.859375, -435330.046875, -443389.59375, -495060.703125, -1665302.25, -488160.46875, -580666.640625, 0.08800000697374344, 0.9860000610351562, 0.1120000034570694, 192.0, 1.0, 96.0, 15.0, 104.0, 1.5, 64.0, 0.0, 0.0, 0.0, 1.6283195370311608E9, 2021-08-07 00:58:57.031
254.0, -537604.3125, -328211.2265625, -346109.6015625, -462696.09375, -388302.3515625, -430810.03125, -434060.296875, -484750.828125, -543.4156036376953, -436806.375, -435386.390625, -443417.484375, -495115.96875, -1665706.125, -488233.96875, -580746.5625, 0.08800000697374344, 0.9860000610351562, 0.1120000034570694, 192.0, 0.0, 0.0, 0.0, 0.0, 0.0, 0.0, 0.0, 0.0, 0.0, 1.6283195370311651E9, 2021-08-07 00:58:57.031
0.0, -537905.8125, -328390.3828125, -346295.203125, -462925.171875, -388471.875, -430970.953125, -434234.671875, -484937.015625, -545.0249176025391, -437022.0, -435583.265625, -443634.1875, -495330.0, -1666212.0, -488395.453125, -580944.515625, 0.08800000697374344, 0.9860000610351562, 0.1120000034570694, 192.0, 0.0, 0.0, 0.0, 0.0, 0.0, 0.0, 0.0, 0.0, 0.0, 1.6283195370311692E9, 2021-08-07 00:58:57.031
2.0, -538166.53125, -328544.34375, -346444.3359375, -463127.390625, -388638.1640625, -431153.34375, -434404.6875, -485095.78125, -542.879150390625, -437100.84375, -435669.09375, -443689.453125, -495415.3125, -1666653.9375, -488503.78125, -581059.875, 0.08800000697374344, 0.9860000610351562, 0.1120000034570694, 192.0, 0.0, 0.0, 0.0, 0.0, 0.0, 0.0, 0.0, 0.0, 0.0, 1.6283195370311737E9, 2021-08-07 00:58:57.031
4.0, -538393.40625, -328651.1015625, -346555.921875, -463284.046875, -388741.171875, -431246.671875, -434504.484375, -485208.421875, -545.5613708496094, -437272.546875, -435820.921875, -443865.375, -495582.703125, -1667106.75, -488614.3125, -581203.640625, 0.08800000697374344, 0.9860000610351562, 0.1120000034570694, 192.0, 0.0, 0.0, 0.0, 0.0, 0.0, 0.0, 0.0, 0.0, 0.0, 1.6283195370311775E9, 2021-08-07 00:58:57.031
6.0, -538640.71875, -328790.0390625, -346686.8203125, -463468.03125, -388882.78125, -431405.484375, -434653.59375, -485353.265625, -543.4156036376953, -437285.390625, -435842.90625, -443862.1875, -495606.84375, -1667493.0, -488667.9375, -581261.578125, 0.09400000423192978, 0.9980000257492065, 0.10000000149011612, 192.0, 1.0, 120.0, 15.5, 24.0, 1.5, 16.0, 0.0, 0.0, 0.0, 1.6283195370311816E9, 2021-08-07 00:58:57.031
8.0, -538969.03125, -329000.3203125, -346899.7734375, -463731.46875, -389099.5078125, -431612.53125, -434862.84375, -485568.375, -544.4884643554688, -437544.515625, -436081.640625, -444121.265625, -495859.5, -1668031.5, -488858.90625, -581489.015625, 0.09400000423192978, 0.9980000257492065, 0.10000000149011612, 192.0, 0.0, 0.0, 0.0, 0.0, 0.0, 0.0, 0.0, 0.0, 0.0, 1.628319537031186E9, 2021-08-07 00:58:57.031
10.0, -539199.703125, -329118.8671875, -347018.859375, -463899.890625, -389212.171875, -431744.484375, -434994.234375, -485691.234375, -544.4884643554688, -437595.984375, -436137.9375, -444151.875, -495921.703125, -1668451.6875, -488954.390625, -581589.84375, 0.09400000423192978, 0.9980000257492065, 0.10000000149011612, 192.0, 0.0, 0.0, 0.0, 0.0, 0.0, 0.0, 0.0, 0.0, 0.0, 1.62831953703119E9, 2021-08-07 00:58:57.031
12.0, -539515.125, -329322.1875, -347218.96875, -464150.953125, -389429.4140625, -431948.34375, -435196.5, -485900.4375, -545.0249176025391, -437798.25, -436325.15625, -444354.09375, -496116.984375, -1668929.625, -489086.390625, -581756.15625, 0.09400000423192978, 0.9980000257492065, 0.10000000149011612, 192.0, 0.0, 0.0, 0.0, 0.0, 0.0, 0.0, 0.0, 0.0, 0.0, 1.628319537031194E9, 2021-08-07 00:58:57.031
14.0, -539767.78125, -329458.96875, -347361.1171875, -464339.25, -389554.40625, -432094.265625, -435345.609375, -486046.359375, -544.4884643554688, -437902.3125, -436429.78125, -444438.328125, -496229.625, -1669402.125, -489229.078125, -581906.90625, 0.09400000423192978, 0.9980000257492065, 0.10000000149011612, 192.0, 0.0, 0.0, 0.0, 0.0, 0.0, 0.0, 0.0, 0.0, 0.0, 1.628319537031198E9, 2021-08-07 00:58:57.031
16.0, -540044.578125, -329628.4921875, -347521.5234375, -464552.71875, -389739.4921875, -432269.109375, -435512.4375, -486216.9375, -545.5613708496094, -438063.796875, -436576.78125, -444600.328125, -496383.609375, -1669841.625, -489325.078125, -582031.359375, 0.1080000028014183, 0.9960000514984131, 0.09600000083446503, 192.0, 1.5, 48.0, 15.5, 16.0, 1.5, 0.0, 0.0, 0.0, 0.0, 1.6283195370312023E9, 2021-08-07 00:58:57.031
18.0, -540349.828125, -329815.171875, -347715.703125, -464790.375, -389905.78125, -432454.734375, -435707.203125, -486411.140625, -543.9520111083984, -438201.65625, -436714.078125, -444722.109375, -496534.875, -1670346.9375, -489501.5625, -582218.578125, 0.1080000028014183, 0.9960000514984131, 0.09600000083446503, 192.0, 0.0, 0.0, 0.0, 0.0, 0.0, 0.0, 0.0, 0.0, 0.0, 1.6283195370312064E9, 2021-08-07 00:58:57.031
20.0, -540564.421875, -329922.46875, -347811.1875, -464942.71875, -390042.046875, -432575.4375, -435818.765625, -486521.109375, -544.4884643554688, -438334.125, -436838.53125, -444852.984375, -496658.765625, -1670762.625, -489576.140625, -582321.046875, 0.1080000028014183, 0.9960000514984131, 0.09600000083446503, 192.0, 0.0, 0.0, 0.0, 0.0, 0.0, 0.0, 0.0, 0.0, 0.0, 1.6283195370312104E9, 2021-08-07 00:58:57.031
22.0, -540878.765625, -330117.1875, -348015.5859375, -465189.515625, -390209.4140625, -432762.65625, -436019.953125, -486723.890625, -544.4884643554688, -438460.734375, -436958.71875, -444963.515625, -496800.421875, -1671247.5, -489731.71875, -582491.625, 0.1080000028014183, 0.9960000514984131, 0.09600000083446503, 192.0, 0.0, 0.0, 0.0, 0.0, 0.0, 0.0, 0.0, 0.0, 0.0, 1.6283195370312145E9, 2021-08-07 00:58:57.031
24.0, -541125.0, -330261.4921875, -348143.7890625, -465377.765625, -390384.8203125, -432927.328125, -436167.46875, -486869.25, -545.0249176025391, -438612.5625, -437107.3125, -445113.703125, -496944.1875, -1671688.5, -489834.1875, -582618.234375, 0.11100000515580177, 0.999000072479248, 0.0990000031888485, 192.0, 1.5, 72.0, 15.5, 40.0, 1.5, 24.0, 0.0, 0.0, 0.0, 1.6283195370312183E9, 2021-08-07 00:58:57.031
26.0, -541430.765625, -330442.8046875, -348339.046875, -465611.671875, -390537.1640625, -433096.3125, -436349.296875, -487057.03125, -545.5613708496094, -438739.6875, -437226.375, -445227.9375, -497084.203125, -1672167.5625, -489981.140625, -582781.828125, 0.11100000515580177, 0.999000072479248, 0.0990000031888485, 192.0, 0.0, 0.0, 0.0, 0.0, 0.0, 0.0, 0.0, 0.0, 0.0, 1.6283195370312223E9, 2021-08-07 00:58:57.031
28.0, -541660.875, -330570.4921875, -348450.6328125, -465783.890625, -390699.7265625, -433250.296875, -436485.5625, -487187.34375, -545.0249176025391, -438862.546875, -437346.0, -445339.546875, -497200.03125, -1672587.5625, -490062.703125, -582885.890625, 0.11100000515580177, 0.999000072479248, 0.0990000031888485, 192.0, 0.0, 0.0, 0.0, 0.0, 0.0, 0.0, 0.0, 0.0, 0.0, 1.6283195370312266E9, 2021-08-07 00:58:57.031
30.0, -542001.0, -330788.8125, -348680.765625, -466051.546875, -390882.6328125, -433449.28125, -436702.828125, -487409.4375, -543.9520111083984, -439052.953125, -437525.203125, -445523.015625, -497399.0625, -1673122.5, -490262.25, -583103.71875, 0.11100000515580177, 0.999000072479248, 0.0990000031888485, 192.0, 0.0, 0.0, 0.0, 0.0, 0.0, 0.0, 0.0, 0.0, 0.0, 1.628319537031232E9, 2021-08-07 00:58:57.031
32.0, -542187.65625, -330875.1796875, -348751.5703125, -466184.0625, -391007.625, -433567.3125, -436796.71875, -487499.0625, -545.0249176025391, -439133.4375, -437604.5625, -445591.6875, -497475.234375, -1673509.125, -490313.765625, -583172.90625, 0.11100000515580177, 0.999000072479248, 0.0990000031888485, 192.0, 0.0, 0.0, 0.0, 0.0, 0.0, 0.0, 0.0, 0.0, 0.0, 1.6283195370312362E9, 2021-08-07 00:58:57.031
34.0, -542542.78125, -331103.71875, -348994.59375, -466465.171875, -391205.578125, -433775.484375, -437024.15625, -487736.15625, -543.4156036376953, -439309.40625, -437768.203125, -445762.78125, -497657.109375, -1674014.4375, -490482.75, -583365.46875, 0.12050000764429569, 0.9975000619888306, 0.11250000260770321, 192.0, 2.0, 8.0, 15.5, 16.0, 1.5, 120.0, 0.0, 0.0, 0.0, 1.6283195370312402E9, 2021-08-07 00:58:57.031
36.0, -542786.859375, -331248.0234375, -349120.1015625, -466652.90625, -391379.9296875, -433950.328125, -437179.734375, -487882.59375, -543.9520111083984, -439446.703125, -437906.0625, -445886.15625, -497794.453125, -1674475.3125, -490608.796875, -583507.125, 0.12050000764429569, 0.9975000619888306, 0.11250000260770321, 192.0, 0.0, 0.0, 0.0, 0.0, 0.0, 0.0, 0.0, 0.0, 0.0, 1.6283195370312445E9, 2021-08-07 00:58:57.031
38.0, -543090.515625, -331424.5078125, -349310.015625, -466882.5, -391528.5234375, -434104.3125, -437353.546875, -488070.328125, -544.4884643554688, -439613.578125, -438057.328125, -446050.3125, -497965.03125, -1674958.6875, -490754.71875, -583680.9375, 0.12050000764429569, 0.9975000619888306, 0.11250000260770321, 192.0, 0.0, 0.0, 0.0, 0.0, 0.0, 0.0, 0.0, 0.0, 0.0, 1.6283195370312483E9, 2021-08-07 00:58:57.031
40.0, -543359.25, -331595.0859375, -349465.5703125, -467096.53125, -391726.9921875, -434310.84375, -437536.96875, -488239.875, -544.4884643554688, -439716.5625, -438164.109375, -446134.546875, -498066.9375, -1675393.125, -490859.859375, -583797.328125, 0.12050000764429569, 0.9975000619888306, 0.11250000260770321, 192.0, 0.0, 0.0, 0.0, 0.0, 0.0, 0.0, 0.0, 0.0, 0.0, 1.6283195370312524E9, 2021-08-07 00:58:57.031
42.0, -543626.390625, -331739.390625, -349621.6875, -467291.8125, -391847.15625, -434432.625, -437675.390625, -488391.140625, -544.4884643554688, -439920.9375, -438351.328125, -446340.515625, -498278.296875, -1675904.4375, -491033.109375, -583994.71875, 0.12050000764429569, 0.9975000619888306, 0.11250000260770321, 192.0, 0.0, 0.0, 0.0, 0.0, 0.0, 0.0, 0.0, 0.0, 0.0, 1.6283195370312564E9, 2021-08-07 00:58:57.031
44.0, -543857.0625, -331867.078125, -349738.6171875, -467466.140625, -391996.828125, -434594.0625, -437819.15625, -488521.5, -543.4156036376953, -439950.421875, -438386.15625, -446348.578125, -498309.421875, -1676277.1875, -491075.484375, -584045.15625, 0.12525000888854265, 0.9747500419616699, 0.12125000637024641, 192.0, 2.0, 8.0, 14.5, 96.0, 2.0, 8.0, 0.0, 0.0, 0.0, 1.6283195370312605E9, 2021-08-07 00:58:57.031
46.0, -544163.90625, -332051.0625, -349931.7421875, -467703.28125, -392165.8125, -434758.21875, -437997.796875, -488715.703125, -546.0977783203125, -440162.859375, -438582.515625, -446561.53125, -498520.21875, -1676782.5, -491242.3125, -584244.1875, 0.12525000888854265, 0.9747500419616699, 0.12125000637024641, 192.0, 0.0, 0.0, 0.0, 0.0, 0.0, 0.0, 0.0, 0.0, 0.0, 1.6283195370312643E9, 2021-08-07 00:58:57.031
48.0, -544426.265625, -332209.3125, -350082.4921875, -467909.25, -392340.703125, -434946.515625, -438172.125, -488877.140625, -546.0977783203125, -440244.421875, -438668.90625, -446622.703125, -498605.53125, -1677218.625, -491349.09375, -584357.90625, 0.12525000888854265, 0.9747500419616699, 0.12125000637024641, 192.0, 0.0, 0.0, 0.0, 0.0, 0.0, 0.0, 0.0, 0.0, 0.0, 1.6283195370312684E9, 2021-08-07 00:58:57.031
50.0, -544681.078125, -332340.2109375, -350217.6796875, -468087.375, -392465.15625, -435061.828125, -438298.21875, -489015.046875, -543.9520111083984, -440436.46875, -438843.234375, -446818.5, -498795.984375, -1677698.25, -491482.640625, -584527.40625, 0.12525000888854265, 0.9747500419616699, 0.12125000637024641, 192.0, 0.0, 0.0, 0.0, 0.0, 0.0, 0.0, 0.0, 0.0, 0.0, 1.6283195370312724E9, 2021-08-07 00:58:57.031
52.0, -544937.484375, -332493.09375, -350364.65625, -468288.0, -392621.7890625, -435236.203125, -438463.96875, -489168.46875, -543.9520111083984, -440483.109375, -438892.59375, -446841.5625, -498849.609375, -1678102.6875, -491564.203125, -584613.796875, 0.12525000888854265, 0.9747500419616699, 0.12125000637024641, 192.0, 0.0, 0.0, 0.0, 0.0, 0.0, 0.0, 0.0, 0.0, 0.0, 1.6283195370312765E9, 2021-08-07 00:58:57.031
54.0, -545255.0625, -332693.71875, -350565.8203125, -468536.90625, -392825.109375, -435427.6875, -438660.84375, -489376.03125, -545.0249176025391, -440701.453125, -439094.8125, -447063.140625, -499067.953125, -1678596.1875, -491720.859375, -584804.203125, 0.1256250054575503, 0.9643750488758087, 0.12462500622496009, 192.0, 1.5, 120.0, 14.5, 104.0, 2.0, 0.0, 0.0, 0.0, 0.0, 1.6283195370312805E9, 2021-08-07 00:58:57.031
56.0, -545520.046875, -332847.140625, -350718.1640625, -468740.203125, -392979.046875, -435598.828125, -438827.15625, -489535.359375, -544.4884643554688, -440803.921875, -439202.109375, -447143.578125, -499178.4375, -1679062.5, -491862.46875, -584952.84375, 0.1256250054575503, 0.9643750488758087, 0.12462500622496009, 192.0, 0.0, 0.0, 0.0, 0.0, 0.0, 0.0, 0.0, 0.0, 0.0, 1.6283195370312846E9, 2021-08-07 00:58:57.031
58.0, -545812.96875, -333029.53125, -350900.015625, -468970.359375, -393168.9609375, -435775.3125, -439006.3125, -489723.65625, -545.0249176025391, -441010.453125, -439393.078125, -447353.859375, -499377.46875, -1679541.9375, -492001.40625, -585123.421875, 0.1256250054575503, 0.9643750488758087, 0.12462500622496009, 192.0, 0.0, 0.0, 0.0, 0.0, 0.0, 0.0, 0.0, 0.0, 0.0, 1.6283195370312896E9, 2021-08-07 00:58:57.031
60.0, -546084.375, -333187.78125, -351058.265625, -469178.484375, -393315.9375, -435944.8125, -439175.8125, -489885.65625, -545.0249176025391, -441101.109375, -439489.125, -447425.765625, -499484.203125, -1680002.25, -492136.59375, -585263.953125, 0.1256250054575503, 0.9643750488758087, 0.12462500622496009, 192.0, 0.0, 0.0, 0.0, 0.0, 0.0, 0.0, 0.0, 0.0, 0.0, 1.6283195370312936E9, 2021-08-07 00:58:57.031
62.0, -546301.640625, -333291.8671875, -351156.984375, -469328.671875, -393436.125, -436052.671875, -439280.4375, -489996.703125, -545.5613708496094, -441256.125, -439629.09375, -447580.78125, -499629.609375, -1680427.125, -492223.5, -585383.0625, 0.1256250054575503, 0.9643750488758087, 0.12462500622496009, 192.0, 0.0, 0.0, 0.0, 0.0, 0.0, 0.0, 0.0, 0.0, 0.0, 1.6283195370312977E9, 2021-08-07 00:58:57.031
64.0, -546597.75, -333469.9453125, -351340.96875, -469557.75, -393598.640625, -436235.0625, -439467.65625, -490181.25, -544.4884643554688, -441330.1875, -439704.75, -447634.96875, -499715.4375, -1680868.6875, -492336.65625, -585505.359375, 0.13199999928474426, 0.956000030040741, 0.12200000882148743, 192.0, 2.0, 16.0, 14.5, 112.0, 1.5, 104.0, 0.0, 0.0, 0.0, 1.6283195370313027E9, 2021-08-07 00:58:57.031
66.0, -546845.578125, -333609.421875, -351471.8671875, -469743.328125, -393763.875, -436386.84375, -439608.1875, -490323.421875, -545.0249176025391, -441512.015625, -439872.65625, -447817.359375, -499891.359375, -1681327.3125, -492453.09375, -585650.203125, 0.13199999928474426, 0.956000030040741, 0.12200000882148743, 192.0, 0.0, 0.0, 0.0, 0.0, 0.0, 0.0, 0.0, 0.0, 0.0, 1.6283195370313067E9, 2021-08-07 00:58:57.031
68.0, -547122.421875, -333769.828125, -351642.46875, -469953.09375, -393900.140625, -436543.5, -439773.421875, -490489.6875, -545.0249176025391, -441601.59375, -439961.15625, -447890.296875, -499994.90625, -1681781.0625, -492578.0625, -585786.984375, 0.13199999928474426, 0.956000030040741, 0.12200000882148743, 192.0, 0.0, 0.0, 0.0, 0.0, 0.0, 0.0, 0.0, 0.0, 0.0, 1.6283195370313108E9, 2021-08-07 00:58:57.031
70.0, -547367.578125, -333913.0546875, -351773.34375, -470140.3125, -394071.796875, -436703.34375, -439919.34375, -490632.9375, -545.0249176025391, -441760.40625, -440110.828125, -448043.203125, -500143.5, -1682220.9375, -492680.53125, -585913.59375, 0.13199999928474426, 0.956000030040741, 0.12200000882148743, 192.0, 0.0, 0.0, 0.0, 0.0, 0.0, 0.0, 0.0, 0.0, 0.0, 1.6283195370313148E9, 2021-08-07 00:58:57.031
72.0, -547661.015625, -334082.578125, -351953.6015625, -470361.890625, -394215.5625, -436864.828125, -440094.75, -490811.015625, -544.4884643554688, -441869.8125, -440217.609375, -448141.359375, -500266.875, -1682691.0, -492816.234375, -586066.453125, 0.13199999928474426, 0.956000030040741, 0.12200000882148743, 192.0, 0.0, 0.0, 0.0, 0.0, 0.0, 0.0, 0.0, 0.0, 0.0, 1.628319537031319E9, 2021-08-07 00:58:57.031
74.0, -547902.375, -334221.515625, -352079.1328125, -470546.390625, -394384.546875, -437027.90625, -440241.1875, -490953.703125, -545.5613708496094, -442022.71875, -440366.203125, -448285.6875, -500411.203125, -1683135.5625, -492921.9375, -586195.21875, 0.14400000870227814, 0.9580000638961792, 0.11800000816583633, 192.0, 2.0, 64.0, 14.5, 120.0, 1.5, 88.0, 0.0, 0.0, 0.0, 1.6283195370313227E9, 2021-08-07 00:58:57.031
76.0, -548264.484375, -334462.8984375, -352331.25, -470839.828125, -394595.90625, -437254.828125, -440483.109375, -491202.65625, -545.0249176025391, -442172.90625, -440506.734375, -448427.296875, -500573.203125, -1683633.375, -493086.609375, -586380.28125, 0.14400000870227814, 0.9580000638961792, 0.11800000816583633, 192.0, 0.0, 0.0, 0.0, 0.0, 0.0, 0.0, 0.0, 0.0, 0.0, 1.6283195370313268E9, 2021-08-07 00:58:57.031
78.0, -548461.359375, -334557.328125, -352411.7109375, -470979.328125, -394726.78125, -437377.125, -440588.8125, -491300.8125, -544.4884643554688, -442327.96875, -440662.3125, -448572.65625, -500723.953125, -1684089.375, -493208.90625, -586521.890625, 0.14400000870227814, 0.9580000638961792, 0.11800000816583633, 192.0, 0.0, 0.0, 0.0, 0.0, 0.0, 0.0, 0.0, 0.0, 0.0, 1.628319537031331E9, 2021-08-07 00:58:57.031
80.0, -548784.84375, -334755.796875, -352626.3046875, -471231.984375, -394892.015625, -437557.359375, -440786.203125, -491506.78125, -543.4156036376953, -442446.515625, -440768.53125, -448683.1875, -500850.5625, -1684539.5625, -493328.53125, -586661.90625, 0.14400000870227814, 0.9580000638961792, 0.11800000816583633, 192.0, 0.0, 0.0, 0.0, 0.0, 0.0, 0.0, 0.0, 0.0, 0.0, 1.628319537031335E9, 2021-08-07 00:58:57.031
82.0, -549038.578125, -334908.703125, -352765.7578125, -471429.9375, -395082.46875, -437745.65625, -440952.0, -491665.59375, -543.9520111083984, -442616.578125, -440940.1875, -448840.359375, -501016.3125, -1685021.8125, -493477.6875, -586828.21875, 0.14400000870227814, 0.9580000638961792, 0.11800000816583633, 192.0, 0.0, 0.0, 0.0, 0.0, 0.0, 0.0, 0.0, 0.0, 0.0, 1.628319537031339E9, 2021-08-07 00:58:57.031
84.0, -549322.359375, -335069.625, -352937.4375, -471639.65625, -395211.1875, -437882.4375, -441108.09375, -491831.859375, -544.4884643554688, -442724.90625, -441036.1875, -448946.578125, -501135.375, -1685459.0625, -493575.84375, -586951.078125, 0.16200000047683716, 0.9820000529289246, 0.11800000816583633, 192.0, 2.5, 8.0, 15.0, 88.0, 1.5, 88.0, 0.0, 0.0, 0.0, 1.628319537031343E9, 2021-08-07 00:58:57.031
86.0, -549597.5625, -335243.9765625, -353097.28125, -471862.3125, -395418.28125, -438091.6875, -441296.90625, -492011.0625, -545.5613708496094, -442891.734375, -441205.734375, -449098.40625, -501302.765625, -1685948.25, -493736.25, -587122.171875, 0.16200000047683716, 0.9820000529289246, 0.11800000816583633, 192.0, 0.0, 0.0, 0.0, 0.0, 0.0, 0.0, 0.0, 0.0, 0.0, 1.628319537031347E9, 2021-08-07 00:58:57.031
88.0, -549868.453125, -335388.796875, -353254.4765625, -472057.546875, -395540.578125, -438215.578125, -441438.0, -492161.8125, -545.0249176025391, -443036.0625, -441330.1875, -449237.859375, -501450.28125, -1686400.5, -493851.5625, -587267.578125, 0.16200000047683716, 0.9820000529289246, 0.11800000816583633, 192.0, 0.0, 0.0, 0.0, 0.0, 0.0, 0.0, 0.0, 0.0, 0.0, 1.6283195370313525E9, 2021-08-07 00:58:57.031
90.0, -550107.1875, -335528.2734375, -353383.21875, -472243.171875, -395709.0, -438388.875, -441595.171875, -492306.09375, -545.0249176025391, -443128.875, -441431.015625, -449312.953125, -501546.328125, -1686826.875, -493949.765625, -587376.46875, 0.16200000047683716, 0.9820000529289246, 0.11800000816583633, 192.0, 0.0, 0.0, 0.0, 0.0, 0.0, 0.0, 0.0, 0.0, 0.0, 1.6283195370313566E9, 2021-08-07 00:58:57.031
92.0, -550377.0, -335676.8671875, -353540.9296875, -472443.28125, -395834.53125, -438516.515625, -441736.265625, -492459.0, -543.9520111083984, -443271.5625, -441554.953125, -449457.28125, -501691.125, -1687267.875, -494054.90625, -587510.015625, 0.16200000047683716, 0.9820000529289246, 0.11800000816583633, 192.0, 0.0, 0.0, 0.0, 0.0, 0.0, 0.0, 0.0, 0.0, 0.0, 1.6283195370313609E9, 2021-08-07 00:58:57.031
94.0, -550651.125, -335847.46875, -353702.390625, -472663.21875, -396027.140625, -438718.78125, -441923.484375, -492632.765625, -545.0249176025391, -443374.546875, -441663.28125, -449540.4375, -501797.90625, -1687719.0, -494175.609375, -587641.453125, 0.1720000058412552, 0.9760000705718994, 0.12600000202655792, 192.0, 2.5, 48.0, 15.0, 64.0, 1.5, 120.0, 0.0, 0.0, 0.0, 1.628319537031365E9, 2021-08-07 00:58:57.031
96.0, -550913.4375, -335989.078125, -353847.234375, -472849.359375, -396154.265625, -438840.0, -442057.03125, -492779.25, -544.4884643554688, -443590.21875, -441860.71875, -449758.21875, -502013.53125, -1688221.6875, -494340.796875, -587837.8125, 0.1720000058412552, 0.9760000705718994, 0.12600000202655792, 192.0, 0.0, 0.0, 0.0, 0.0, 0.0, 0.0, 0.0, 0.0, 0.0, 1.6283195370313687E9, 2021-08-07 00:58:57.031
98.0, -551205.28125, -336176.8359375, -354028.0078125, -473082.703125, -396353.8125, -439054.03125, -442257.140625, -492968.578125, -545.0249176025391, -443629.359375, -441904.6875, -449776.453125, -502059.140625, -1688616.5625, -494408.953125, -587911.3125, 0.1720000058412552, 0.9760000705718994, 0.12600000202655792, 192.0, 0.0, 0.0, 0.0, 0.0, 0.0, 0.0, 0.0, 0.0, 0.0, 1.628319537031374E9, 2021-08-07 00:58:57.031
100.0, -551493.328125, -336346.359375, -354205.03125, -473303.71875, -396518.484375, -439210.6875, -442422.890625, -493144.03125, -545.0249176025391, -443861.625, -442119.28125, -450010.875, -502288.21875, -1689131.4375, -494584.359375, -588118.359375, 0.1720000058412552, 0.9760000705718994, 0.12600000202655792, 192.0, 0.0, 0.0, 0.0, 0.0, 0.0, 0.0, 0.0, 0.0, 0.0, 1.628319537031378E9, 2021-08-07 00:58:57.031
102.0, -551757.28125, -336501.9140625, -354355.78125, -473509.171875, -396680.484375, -439389.328125, -442594.03125, -493308.1875, -545.0249176025391, -443950.171875, -442215.84375, -450080.0625, -502386.375, -1689579.9375, -494711.484375, -588256.21875, 0.1720000058412552, 0.9760000705718994, 0.12600000202655792, 192.0, 0.0, 0.0, 0.0, 0.0, 0.0, 0.0, 0.0, 0.0, 0.0, 1.628319537031382E9, 2021-08-07 00:58:57.031
104.0, -552052.828125, -336684.3046875, -354536.5546875, -473739.84375, -396865.03125, -439563.65625, -442770.515625, -493494.84375, -545.5613708496094, -444158.296875, -442402.5, -450287.671875, -502587.0, -1690059.0, -494852.0625, -588430.03125, 0.20000000298023224, 0.9540000557899475, 0.12200000882148743, 192.0, 3.0, 32.0, 14.5, 104.0, 1.5, 104.0, 0.0, 0.0, 0.0, 1.6283195375118613E9, 2021-08-07 00:58:57.511
106.0, -552275.484375, -336796.4296875, -354650.296875, -473899.6875, -396974.484375, -439691.859375, -442896.5625, -493612.3125, -545.5613708496094, -444200.671875, -442450.78125, -450309.65625, -502641.1875, -1690464.0, -494934.65625, -588519.09375, 0.20000000298023224, 0.9540000557899475, 0.12200000882148743, 192.0, 0.0, 0.0, 0.0, 0.0, 0.0, 0.0, 0.0, 0.0, 0.0, 1.6283195375120366E9, 2021-08-07 00:58:57.512
108.0, -552578.578125, -336989.5546875, -354837.515625, -474135.75, -397176.703125, -439882.828125, -443087.015625, -493807.078125, -546.0977783203125, -444420.09375, -442656.234375, -450532.3125, -502857.890625, -1690955.8125, -495089.15625, -588706.828125, 0.20000000298023224, 0.9540000557899475, 0.12200000882148743, 192.0, 0.0, 0.0, 0.0, 0.0, 0.0, 0.0, 0.0, 0.0, 0.0, 1.628319537512041E9, 2021-08-07 00:58:57.512
110.0, -552825.84375, -337122.5859375, -354974.296875, -474320.25, -397300.078125, -440024.484375, -443229.703125, -493945.453125, -543.9520111083984, -444483.375, -442724.90625, -450577.359375, -502933.546875, -1691378.625, -495194.8125, -588819.515625, 0.20000000298023224, 0.9540000557899475, 0.12200000882148743, 192.0, 0.0, 0.0, 0.0, 0.0, 0.0, 0.0, 0.0, 0.0, 0.0, 1.6283195375120451E9, 2021-08-07 00:58:57.512
112.0, -553107.46875, -337292.109375, -355138.9921875, -474540.234375, -397491.09375, -440204.203125, -443401.921875, -494124.09375, -545.5613708496094, -444663.609375, -442892.296875, -450757.59375, -503108.953125, -1691829.1875, -495311.25, -588967.546875, 0.20200000703334808, 0.9710000455379486, 0.12400000542402267, 192.0, 3.0, 48.0, 15.0, 112.0, 1.5, 120.0, 0.0, 0.0, 0.0, 1.6283195375120494E9, 2021-08-07 00:58:57.512
114.0, -553347.28125, -337420.3125, -355271.484375, -474716.15625, -397599.421875, -440328.65625, -443537.109375, -494255.53125, -543.9520111083984, -444758.015625, -442985.625, -450834.84375, -503215.171875, -1692285.1875, -495443.765625, -589109.71875, 0.20200000703334808, 0.9710000455379486, 0.12400000542402267, 192.0, 0.0, 0.0, 0.0, 0.0, 0.0, 0.0, 0.0, 0.0, 0.0, 1.6283195375120535E9, 2021-08-07 00:58:57.512
116.0, -553629.421875, -337595.71875, -355437.796875, -474939.328125, -397801.6875, -440520.703125, -443717.34375, -494435.765625, -545.0249176025391, -444916.828125, -443130.984375, -450989.34375, -503363.25, -1692711.1875, -495539.25, -589232.53125, 0.20200000703334808, 0.9710000455379486, 0.12400000542402267, 192.0, 0.0, 0.0, 0.0, 0.0, 0.0, 0.0, 0.0, 0.0, 0.0, 1.628319537512058E9, 2021-08-07 00:58:57.512
118.0, -553940.0625, -337790.4609375, -355640.5546875, -475181.25, -397968.515625, -440705.203125, -443916.375, -494634.234375, -545.0249176025391, -445042.359375, -443253.84375, -451104.140625, -503503.265625, -1693197.1875, -495694.265625, -589402.59375, 0.20200000703334808, 0.9710000455379486, 0.12400000542402267, 192.0, 0.0, 0.0, 0.0, 0.0, 0.0, 0.0, 0.0, 0.0, 0.0, 1.628319537512062E9, 2021-08-07 00:58:57.512
120.0, -554149.78125, -337896.6796875, -355733.3671875, -475332.0, -398106.375, -440830.734375, -444025.78125, -494744.203125, -545.0249176025391, -445237.59375, -443438.90625, -451289.765625, -503689.921875, -1693676.25, -495837.46875, -589569.421875, 0.20200000703334808, 0.9710000455379486, 0.12400000542402267, 192.0, 0.0, 0.0, 0.0, 0.0, 0.0, 0.0, 0.0, 0.0, 0.0, 1.6283195375120664E9, 2021-08-07 00:58:57.512
122.0, -554338.640625, -337963.1953125, -355811.15625, -475446.796875, -398143.921875, -440886.515625, -444096.609375, -494815.546875, -546.0977783203125, -445233.84375, -443431.40625, -451278.46875, -503699.578125, -1694029.125, -495857.34375, -589605.375, 0.20600000768899918, 0.9835000485181808, 0.12700000777840614, 192.0, 3.0, 72.0, 15.5, 16.0, 2.0, 8.0, 0.0, 0.0, 0.0, 1.6283195375120704E9, 2021-08-07 00:58:57.512
124.0, -554662.640625, -338184.75, -356018.7421875, -475716.09375, -398399.25, -441133.3125, -444325.640625, -495040.359375, -544.4884643554688, -445380.84375, -443573.578125, -451413.65625, -503840.109375, -1694466.375, -495958.734375, -589729.3125, 0.20600000768899918, 0.9835000485181808, 0.12700000777840614, 192.0, 0.0, 0.0, 0.0, 0.0, 0.0, 0.0, 0.0, 0.0, 0.0, 1.6283195375120878E9, 2021-08-07 00:58:57.512
126.0, -554931.375, -338329.5703125, -356176.9921875, -475914.046875, -398514.046875, -441263.109375, -444472.640625, -495193.78125, -545.0249176025391, -445548.234375, -443733.984375, -451576.21875, -504020.90625, -1694979.75, -496137.890625, -589928.296875, 0.20600000768899918, 0.9835000485181808, 0.12700000777840614, 192.0, 0.0, 0.0, 0.0, 0.0, 0.0, 0.0, 0.0, 0.0, 0.0, 1.628319537512092E9, 2021-08-07 00:58:57.512
128.0, -555206.578125, -338507.1328125, -356338.4765625, -476134.5, -398724.890625, -441469.640625, -444659.34375, -495372.375, -544.4884643554688, -445678.03125, -443861.109375, -451693.6875, -504143.203125, -1695411.5625, -496239.84375, -590045.8125, 0.20600000768899918, 0.9835000485181808, 0.12700000777840614, 192.0, 0.0, 0.0, 0.0, 0.0, 0.0, 0.0, 0.0, 0.0, 0.0, 1.628319537512096E9, 2021-08-07 00:58:57.512
130.0, -555539.15625, -338716.359375, -356560.546875, -476393.0625, -398900.859375, -441656.34375, -444865.3125, -495587.53125, -545.0249176025391, -445833.609375, -444005.390625, -451846.03125, -504307.921875, -1695899.8125, -496392.703125, -590222.8125, 0.20600000768899918, 0.9835000485181808, 0.12700000777840614, 192.0, 0.0, 0.0, 0.0, 0.0, 0.0, 0.0, 0.0, 0.0, 0.0, 1.6283195375121E9, 2021-08-07 00:58:57.512
132.0, -555808.453125, -338885.34375, -356716.125, -476608.21875, -399100.921875, -441858.5625, -445047.1875, -495760.78125, -545.0249176025391, -446026.171875, -444200.671875, -452023.59375, -504496.21875, -1696405.125, -496569.75, -590415.421875, 0.20200001075863838, 1.001750074326992, 0.1295000035315752, 192.0, 3.0, 24.0, 15.5, 112.0, 2.0, 16.0, 0.0, 0.0, 0.0, 1.6283195375121095E9, 2021-08-07 00:58:57.512
134.0, -556082.0625, -339033.9375, -356878.125, -476808.84375, -399222.703125, -441985.171875, -445192.546875, -495919.546875, -546.6342315673828, -446175.84375, -444335.296875, -452171.109375, -504656.0625, -1696872.375, -496703.859375, -590576.859375, 0.20200001075863838, 1.001750074326992, 0.1295000035315752, 192.0, 0.0, 0.0, 0.0, 0.0, 0.0, 0.0, 0.0, 0.0, 0.0, 1.6283195375121136E9, 2021-08-07 00:58:57.512
136.0, -556327.21875, -339180.375, -357009.5625, -476999.8125, -399396.515625, -442163.25, -445349.71875, -496066.546875, -544.4884643554688, -446256.328125, -444416.859375, -452231.203125, -504734.90625, -1697272.5, -496780.546875, -590664.84375, 0.20200001075863838, 1.001750074326992, 0.1295000035315752, 192.0, 0.0, 0.0, 0.0, 0.0, 0.0, 0.0, 0.0, 0.0, 0.0, 1.6283195375121179E9, 2021-08-07 00:58:57.512
138.0, -556615.828125, -339347.203125, -357187.6640625, -477218.109375, -399540.796875, -442311.84375, -445514.4375, -496244.109375, -544.4884643554688, -446437.640625, -444583.171875, -452414.671875, -504921.609375, -1697759.625, -496933.96875, -590846.15625, 0.20200001075863838, 1.001750074326992, 0.1295000035315752, 192.0, 0.0, 0.0, 0.0, 0.0, 0.0, 0.0, 0.0, 0.0, 0.0, 1.628319537512122E9, 2021-08-07 00:58:57.512
140.0, -556847.015625, -339477.5625, -357307.2890625, -477396.234375, -399695.859375, -442476.0, -445659.796875, -496378.21875, -545.0249176025391, -446520.234375, -444673.265625, -452480.671875, -505006.359375, -1698179.625, -497027.859375, -590951.296875, 0.20200001075863838, 1.001750074326992, 0.1295000035315752, 192.0, 0.0, 0.0, 0.0, 0.0, 0.0, 0.0, 0.0, 0.0, 0.0, 1.628319537512126E9, 2021-08-07 00:58:57.512
142.0, -557142.046875, -339653.53125, -357491.2734375, -477618.84375, -399851.953125, -442628.90625, -445827.140625, -496559.015625, -545.5613708496094, -446694.609375, -444829.359375, -452656.078125, -505181.765625, -1698647.4375, -497160.890625, -591115.453125, 0.19400000758469105, 1.000875037163496, 0.1337500074878335, 192.0, 2.5, 104.0, 15.5, 32.0, 2.0, 40.0, 0.0, 0.0, 0.0, 1.628319537512131E9, 2021-08-07 00:58:57.512
144.0, -557392.59375, -339803.71875, -357631.828125, -477814.125, -400019.859375, -442810.21875, -445993.453125, -496713.515625, -545.0249176025391, -446777.71875, -444918.984375, -452716.6875, -505269.75, -1699076.625, -497267.625, -591228.09375, 0.19400000758469105, 1.000875037163496, 0.1337500074878335, 192.0, 0.0, 0.0, 0.0, 0.0, 0.0, 0.0, 0.0, 0.0, 0.0, 1.628319537512135E9, 2021-08-07 00:58:57.512
146.0, -557609.859375, -339899.203125, -357732.6796875, -477958.40625, -400104.609375, -442891.21875, -446083.03125, -496815.421875, -544.4884643554688, -446953.6875, -445076.671875, -452895.84375, -505445.15625, -1699536.75, -497389.96875, -591384.75, 0.19400000758469105, 1.000875037163496, 0.1337500074878335, 192.0, 0.0, 0.0, 0.0, 0.0, 0.0, 0.0, 0.0, 0.0, 0.0, 1.628319537512139E9, 2021-08-07 00:58:57.512
148.0, -557872.6875, -340055.859375, -357883.96875, -478162.828125, -400270.921875, -443071.453125, -446255.765625, -496975.828125, -546.0977783203125, -446978.390625, -445107.796875, -452900.671875, -505475.71875, -1699918.3125, -497447.90625, -591447.515625, 0.19400000758469105, 1.000875037163496, 0.1337500074878335, 192.0, 0.0, 0.0, 0.0, 0.0, 0.0, 0.0, 0.0, 0.0, 0.0, 1.6283195375121431E9, 2021-08-07 00:58:57.512
150.0, -558201.0, -340267.21875, -358098.0, -478422.984375, -400482.28125, -443271.5625, -446462.859375, -497195.203125, -545.0249176025391, -447227.296875, -445337.390625, -453150.140625, -505721.953125, -1700441.8125, -497638.3125, -591669.609375, 0.19400000758469105, 1.000875037163496, 0.1337500074878335, 192.0, 0.0, 0.0, 0.0, 0.0, 0.0, 0.0, 0.0, 0.0, 0.0, 1.628319537512148E9, 2021-08-07 00:58:57.512
152.0, -558434.34375, -340391.1328125, -358219.78125, -478596.234375, -400608.328125, -443415.84375, -446601.234375, -497323.96875, -543.4156036376953, -447280.921875, -445400.671875, -453185.015625, -505790.625, -1700859.75, -497734.359375, -591772.59375, 0.1740000108256936, 1.0014375653117895, 0.13587500946596265, 192.0, 2.0, 104.0, 15.5, 40.0, 2.0, 40.0, 0.0, 0.0, 0.0, 1.628319537512152E9, 2021-08-07 00:58:57.512
154.0, -558722.4375, -340564.9453125, -358395.1875, -478818.328125, -400789.640625, -443585.90625, -446771.859375, -497504.765625, -546.0977783203125, -447489.046875, -445587.890625, -453394.21875, -505991.25, -1701337.6875, -497873.8125, -591946.40625, 0.1740000108256936, 1.0014375653117895, 0.13587500946596265, 192.0, 0.0, 0.0, 0.0, 0.0, 0.0, 0.0, 0.0, 0.0, 0.0, 1.628319537512156E9, 2021-08-07 00:58:57.512
156.0, -558983.15625, -340716.75, -358546.4765625, -479016.28125, -400935.046875, -443750.0625, -446936.53125, -497658.703125, -546.0977783203125, -447549.140625, -445652.296875, -453438.1875, -506064.75, -1701762.0, -497976.28125, -592055.859375, 0.1740000108256936, 1.0014375653117895, 0.13587500946596265, 192.0, 0.0, 0.0, 0.0, 0.0, 0.0, 0.0, 0.0, 0.0, 0.0, 1.62831953751216E9, 2021-08-07 00:58:57.512
158.0, -559222.40625, -340847.109375, -358671.4453125, -479192.765625, -401078.8125, -443883.09375, -447064.21875, -497794.453125, -545.5613708496094, -447772.3125, -445858.828125, -453660.28125, -506277.703125, -1702256.625, -498131.859375, -592245.75, 0.1740000108256936, 1.0014375653117895, 0.13587500946596265, 192.0, 0.0, 0.0, 0.0, 0.0, 0.0, 0.0, 0.0, 0.0, 0.0, 1.628319537512164E9, 2021-08-07 00:58:57.512
160.0, -559530.328125, -341040.75, -358869.9375, -479436.84375, -401257.96875, -444082.640625, -447266.4375, -497994.0, -545.0249176025391, -447808.265625, -445900.640625, -453680.15625, -506328.703125, -1702655.25, -498209.625, -592332.65625, 0.1740000108256936, 1.0014375653117895, 0.13587500946596265, 192.0, 0.0, 0.0, 0.0, 0.0, 0.0, 0.0, 0.0, 0.0, 0.0, 1.628319537512168E9, 2021-08-07 00:58:57.512
162.0, -559765.265625, -341170.5703125, -358990.640625, -479611.21875, -401409.234375, -444219.984375, -447394.640625, -498127.03125, -545.5613708496094, -448034.0625, -446113.078125, -453904.921875, -506546.484375, -1703149.6875, -498371.109375, -592525.78125, 0.11800000816583633, 1.0140000581741333, 0.14600001275539398, 192.0, 1.5, 88.0, 15.5, 88.0, 2.0, 72.0, 0.0, 0.0, 0.0, 1.6283195375121722E9, 2021-08-07 00:58:57.512
164.0, -559998.609375, -341289.65625, -359116.171875, -479778.5625, -401505.796875, -444336.9375, -447521.25, -498253.078125, -544.4884643554688, -448054.453125, -446132.953125, -453911.859375, -506584.546875, -1703532.75, -498426.890625, -592591.734375, 0.11800000816583633, 1.0140000581741333, 0.14600001275539398, 192.0, 0.0, 0.0, 0.0, 0.0, 0.0, 0.0, 0.0, 0.0, 0.0, 1.6283195375121763E9, 2021-08-07 00:58:57.512
166.0, -560296.875, -341486.015625, -359303.390625, -480021.5625, -401727.890625, -444548.296875, -447719.203125, -498454.265625, -544.4884643554688, -448249.734375, -446319.609375, -454103.390625, -506772.84375, -1704009.1875, -498570.140625, -592761.28125, 0.11800000816583633, 1.0140000581741333, 0.14600001275539398, 192.0, 0.0, 0.0, 0.0, 0.0, 0.0, 0.0, 0.0, 0.0, 0.0, 1.628319537512182E9, 2021-08-07 00:58:57.512
168.0, -560583.328125, -341651.2265625, -359478.2578125, -480238.3125, -401866.828125, -444706.546875, -447889.78125, -498627.515625, -545.0249176025391, -448387.078125, -446451.5625, -454225.171875, -506918.765625, -1704500.0625, -498733.734375, -592939.359375, 0.11800000816583633, 1.0140000581741333, 0.14600001275539398, 192.0, 0.0, 0.0, 0.0, 0.0, 0.0, 0.0, 0.0, 0.0, 0.0, 1.628319537512186E9, 2021-08-07 00:58:57.512
170.0, -560825.8125, -341792.3203125, -359606.484375, -480424.453125, -402039.5625, -444866.953125, -448036.21875, -498769.6875, -545.0249176025391, -448516.359375, -446574.984375, -454347.46875, -507041.0625, -1704917.25, -498814.734375, -593045.0625, 0.11800000816583633, 1.0140000581741333, 0.14600001275539398, 192.0, 0.0, 0.0, 0.0, 0.0, 0.0, 0.0, 0.0, 0.0, 0.0, 1.62831953751219E9, 2021-08-07 00:58:57.512
172.0, -561114.9375, -341960.765625, -359784.5625, -480642.796875, -402177.984375, -445023.5625, -448205.765625, -498945.09375, -543.9520111083984, -448650.46875, -446702.109375, -454471.40625, -507185.390625, -1705399.6875, -498967.640625, -593211.328125, 0.10400000214576721, 0.9940000176429749, 0.15000000596046448, 192.0, 1.5, 32.0, 15.5, 8.0, 2.0, 88.0, 0.0, 0.0, 0.0, 1.6283195375121946E9, 2021-08-07 00:58:57.512
174.0, -561326.296875, -342073.40625, -359884.359375, -480799.96875, -402324.9375, -445164.65625, -448328.578125, -499062.046875, -544.4884643554688, -448769.015625, -446816.90625, -454582.96875, -507300.1875, -1705813.125, -499050.796875, -593315.953125, 0.10400000214576721, 0.9940000176429749, 0.15000000596046448, 192.0, 0.0, 0.0, 0.0, 0.0, 0.0, 0.0, 0.0, 0.0, 0.0, 1.6283195375121987E9, 2021-08-07 00:58:57.512
176.0, -561660.515625, -342282.6328125, -360106.96875, -481062.28125, -402505.171875, -445355.109375, -448537.265625, -499280.390625, -546.0977783203125, -448903.640625, -446942.4375, -454709.578125, -507443.953125, -1706283.5625, -499192.40625, -593477.953125, 0.10400000214576721, 0.9940000176429749, 0.15000000596046448, 192.0, 0.0, 0.0, 0.0, 0.0, 0.0, 0.0, 0.0, 0.0, 0.0, 1.6283195375122025E9, 2021-08-07 00:58:57.512
178.0, -561915.328125, -342438.7265625, -360249.6796875, -481262.90625, -402695.625, -445542.328125, -448704.09375, -499440.75, -545.5613708496094, -449063.53125, -447102.84375, -454854.9375, -507600.609375, -1706750.4375, -499327.59375, -593631.890625, 0.10400000214576721, 0.9940000176429749, 0.15000000596046448, 192.0, 0.0, 0.0, 0.0, 0.0, 0.0, 0.0, 0.0, 0.0, 0.0, 1.6283195375122073E9, 2021-08-07 00:58:57.512
180.0, -562188.375, -342590.53125, -360414.3515625, -481461.375, -402816.328125, -445671.609375, -448853.25, -499597.96875, -545.0249176025391, -449231.953125, -447255.703125, -455019.609375, -507775.453125, -1707242.8125, -499486.359375, -593815.359375, 0.10400000214576721, 0.9940000176429749, 0.15000000596046448, 192.0, 0.0, 0.0, 0.0, 0.0, 0.0, 0.0, 0.0, 0.0, 0.0, 1.628319537512211E9, 2021-08-07 00:58:57.512
182.0, -562415.8125, -342719.296875, -360526.4765625, -481637.34375, -402978.328125, -445834.6875, -448995.375, -499732.59375, -543.9520111083984, -449297.953125, -447325.453125, -455070.609375, -507839.296875, -1707626.8125, -499543.21875, -593885.109375, 0.10400000214576721, 0.9800000190734863, 0.14800000190734863, 192.0, 1.5, 32.0, 15.0, 80.0, 2.0, 80.0, 0.0, 0.0, 0.0, 1.6283195375122151E9, 2021-08-07 00:58:57.512
184.0, -562686.1875, -342866.2734375, -360687.3984375, -481836.375, -403101.1875, -445961.296875, -449140.78125, -499888.171875, -544.4884643554688, -449459.390625, -447471.890625, -455233.125, -508007.203125, -1708101.5625, -499681.640625, -594053.015625, 0.10400000214576721, 0.9800000190734863, 0.14800000190734863, 192.0, 0.0, 0.0, 0.0, 0.0, 0.0, 0.0, 0.0, 0.0, 0.0, 1.6283195375122192E9, 2021-08-07 00:58:57.512
186.0, -562913.625, -342990.7265625, -360802.1953125, -482007.46875, -403256.765625, -446117.90625, -449280.234375, -500015.859375, -546.0977783203125, -449538.796875, -447560.390625, -455294.8125, -508090.359375, -1708515.1875, -499766.390625, -594146.90625, 0.10400000214576721, 0.9800000190734863, 0.14800000190734863, 192.0, 0.0, 0.0, 0.0, 0.0, 0.0, 0.0, 0.0, 0.0, 0.0, 1.6283195375122232E9, 2021-08-07 00:58:57.512
188.0, -563212.96875, -343167.75, -360989.4140625, -482236.546875, -403413.375, -446274.0, -449454.046875, -500200.359375, -545.5613708496094, -449694.890625, -447696.65625, -455450.953125, -508249.125, -1708974.375, -499887.609375, -594299.25, 0.10400000214576721, 0.9800000190734863, 0.14800000190734863, 192.0, 0.0, 0.0, 0.0, 0.0, 0.0, 0.0, 0.0, 0.0, 0.0, 1.6283195375122273E9, 2021-08-07 00:58:57.512
190.0, -563469.9375, -343328.15625, -361138.546875, -482442.515625, -403593.65625, -446466.046875, -449627.859375, -500364.0, -545.5613708496094, -449823.65625, -447829.171875, -455559.28125, -508381.125, -1709443.3125, -500034.609375, -594451.078125, 0.10400000214576721, 0.9800000190734863, 0.14800000190734863, 192.0, 0.0, 0.0, 0.0, 0.0, 0.0, 0.0, 0.0, 0.0, 0.0, 1.628319537512231E9, 2021-08-07 00:58:57.512
192.0, -563788.59375, -343524.4921875, -361345.078125, -482690.90625, -403779.796875, -446646.328125, -449820.421875, -500567.296875, -545.0249176025391, -450007.640625, -447997.078125, -455745.984375, -508567.78125, -1709921.25, -500173.546875, -594621.65625, 0.12400000542402267, 0.9740000367164612, 0.14600001275539398, 192.0, 1.5, 112.0, 15.0, 56.0, 2.0, 72.0, 0.0, 0.0, 0.0, 1.6283195375122352E9, 2021-08-07 00:58:57.512
194.0, -564030.515625, -343663.96875, -361475.9765625, -482877.609375, -403931.0625, -446813.671875, -449974.40625, -500709.984375, -545.5613708496094, -450102.609375, -448097.90625, -455821.59375, -508668.65625, -1710366.0, -500296.40625, -594751.453125, 0.12400000542402267, 0.9740000367164612, 0.14600001275539398, 192.0, 0.0, 0.0, 0.0, 0.0, 0.0, 0.0, 0.0, 0.0, 0.0, 1.6283195375122392E9, 2021-08-07 00:58:57.512
196.0, -564347.015625, -343862.4375, -361677.140625, -483125.4375, -404124.1875, -446997.140625, -450168.046875, -500917.078125, -545.5613708496094, -450318.234375, -448293.703125, -456038.34375, -508878.9375, -1710863.8125, -500453.578125, -594941.390625, 0.12400000542402267, 0.9740000367164612, 0.14600001275539398, 192.0, 0.0, 0.0, 0.0, 0.0, 0.0, 0.0, 0.0, 0.0, 0.0, 1.6283195375122433E9, 2021-08-07 00:58:57.512
198.0, -564583.59375, -343996.0078125, -361805.34375, -483307.265625, -404262.046875, -447151.125, -450316.640625, -501056.015625, -544.4884643554688, -450403.546875, -448383.84375, -456103.78125, -508970.671875, -1711309.125, -500576.4375, -595068.515625, 0.12400000542402267, 0.9740000367164612, 0.14600001275539398, 192.0, 0.0, 0.0, 0.0, 0.0, 0.0, 0.0, 0.0, 0.0, 0.0, 1.628319537512247E9, 2021-08-07 00:58:57.512
