%OpenBCI Raw EEG Data
%Number of channels = 16
%Sample Rate = 125 Hz
%Board = OpenBCI_GUI$BoardCytonSerialDaisy
Sample Index, EXG Channel 0, EXG Channel 1, EXG Channel 2, EXG Channel 3, EXG Channel 4, EXG Channel 5, EXG Channel 6, EXG Channel 7, EXG Channel 8, EXG Channel 9, EXG Channel 10, EXG Channel 11, EXG Channel 12, EXG Channel 13, EXG Channel 14, EXG Channel 15, Accel Channel 0, Accel Channel 1, Accel Channel 2, Other, Other, Other, Other, Other, Other, Other, Analog Channel 0, Analog Channel 1, Analog Channel 2, Timestamp, Timestamp (Formatted)
0.0, 440780.296875, 457812.890625, -650160.0, -585023.109375, 48583.927734375, -428967.328125, -90512.759765625, -249367.1484375, -48879.5068359375, 212233.03125, -633447.140625, -671183.71875, 208817.5078125, 178188.8203125, 2249999.625, -376700.203125, 0.058000002056360245, 0.984000027179718, 0.1940000057220459, 192.0, 0.5, 104.0, 15.0, 96.0, 3.0, 8.0, 0.0, 0.0, 0.0, 1.6283199309611633E9, 2021-08-07 01:05:30.961
2.0, 880844.53125, 915368.8125, -1300078.125, -1169423.34375, 94609.564453125, -854350.6875, -181476.12890625, -498239.671875, -120513.26953125, 440889.75, -1279621.96875, -1345402.59375, 413046.28125, 354854.1328125, -838216.6875, -760460.484375, 0.058000002056360245, 0.984000027179718, 0.1940000057220459, 192.0, 0.0, 0.0, 0.0, 0.0, 0.0, 0.0, 0.0, 0.0, 0.0, 1.6283199309612951E9, 2021-08-07 01:05:30.961
4.0, 880813.40625, 915459.46875, -1300689.09375, -1170496.78125, 105031.55859375, -851274.1875, -182006.671875, -499243.359375, -118884.09375, 463519.03125, -1273939.96875, -1324662.09375, 411701.953125, 356821.265625, -836265.09375, -759411.75, 0.058000002056360245, 0.984000027179718, 0.1940000057220459, 192.0, 0.0, 0.0, 0.0, 0.0, 0.0, 0.0, 0.0, 0.0, 0.0, 1.6283199309612997E9, 2021-08-07 01:05:30.961
6.0, 880997.90625, 915206.25, -1299809.34375, -1169474.34375, 92857.546875, -855880.125, -180874.78125, -497842.734375, -120510.046875, 441830.15625, -1279542.0, -1344448.21875, 413102.0625, 354656.1796875, -837928.03125, -760590.328125, 0.06500000320374966, 0.984000027179718, 0.21000000834465027, 192.0, 1.0, 32.0, 15.0, 96.0, 3.5, 8.0, 0.0, 0.0, 0.0, 1.6283199309613037E9, 2021-08-07 01:05:30.961
8.0, 880425.5625, 915158.53125, -1300793.71875, -1170758.625, 106213.875, -850102.125, -182117.1796875, -499858.640625, -119043.9609375, 461698.875, -1274310.65625, -1326239.25, 411754.5, 356709.1640625, -836117.0625, -759604.875, 0.06500000320374966, 0.984000027179718, 0.21000000834465027, 192.0, 0.0, 0.0, 0.0, 0.0, 0.0, 0.0, 0.0, 0.0, 0.0, 1.6283199309613075E9, 2021-08-07 01:05:30.961
10.0, 880816.59375, 914951.4375, -1299797.53125, -1169598.28125, 91979.390625, -857200.3125, -180727.79296875, -497723.0625, -120603.92578125, 443451.28125, -1279464.75, -1342967.15625, 412811.859375, 354317.15625, -837761.8125, -760826.90625, 0.06500000320374966, 0.984000027179718, 0.21000000834465027, 192.0, 0.0, 0.0, 0.0, 0.0, 0.0, 0.0, 0.0, 0.0, 0.0, 1.6283199309613116E9, 2021-08-07 01:05:30.961
12.0, 880264.59375, 915113.4375, -1300575.9375, -1170504.28125, 107232.046875, -848809.78125, -182293.6640625, -499443.46875, -119195.23828125, 459352.453125, -1274851.40625, -1328225.15625, 411931.03125, 356448.4453125, -836067.1875, -759395.109375, 0.06500000320374966, 0.984000027179718, 0.21000000834465027, 192.0, 0.0, 0.0, 0.0, 0.0, 0.0, 0.0, 0.0, 0.0, 0.0, 1.6283199309613156E9, 2021-08-07 01:05:30.961
14.0, 880699.125, 914554.5, -1299738.46875, -1169581.125, 91525.025390625, -858178.78125, -180770.70703125, -498445.6875, -120454.79296875, 445697.34375, -1278971.8125, -1340592.28125, 412591.921875, 354151.9453125, -837453.28125, -760666.5, 0.06500000320374966, 0.984000027179718, 0.21000000834465027, 192.0, 0.0, 0.0, 0.0, 0.0, 0.0, 0.0, 0.0, 0.0, 0.0, 1.6283199309613197E9, 2021-08-07 01:05:30.961
16.0, 880032.84375, 914946.65625, -1300681.03125, -1170426.0, 107472.90234375, -848022.28125, -182568.328125, -499643.015625, -119391.03515625, 456505.59375, -1275454.875, -1330629.5625, 412030.78125, 356199.0, -836407.21875, -759675.703125, 0.07550000306218863, 0.9820000231266022, 0.2240000069141388, 192.0, 1.0, 88.0, 15.0, 80.0, 3.5, 56.0, 0.0, 0.0, 0.0, 1.6283199309613235E9, 2021-08-07 01:05:30.961
18.0, 880796.71875, 914803.96875, -1299972.9375, -1169839.125, 91531.998046875, -858760.21875, -181121.00390625, -498573.328125, -120270.796875, 448588.21875, -1278139.78125, -1337962.125, 412545.796875, 354571.96875, -837366.9375, -760581.75, 0.07550000306218863, 0.9820000231266022, 0.2240000069141388, 192.0, 0.0, 0.0, 0.0, 0.0, 0.0, 0.0, 0.0, 0.0, 0.0, 1.6283199309613276E9, 2021-08-07 01:05:30.961
20.0, 879996.375, 915117.1875, -1300954.125, -1170734.4375, 107060.91796875, -847735.3125, -183089.75390625, -500120.4375, -119544.99609375, 453524.578125, -1276221.9375, -1333589.625, 412062.984375, 356057.3671875, -837083.71875, -760251.84375, 0.07550000306218863, 0.9820000231266022, 0.2240000069141388, 192.0, 0.0, 0.0, 0.0, 0.0, 0.0, 0.0, 0.0, 0.0, 0.0, 1.6283199309613316E9, 2021-08-07 01:05:30.961
22.0, 881245.21875, 915197.15625, -1299485.8125, -1169434.6875, 92150.51953125, -858772.03125, -180637.67578125, -497828.25, -119691.4453125, 451838.53125, -1277331.84375, -1335330.375, 412655.203125, 354902.953125, -837138.9375, -760458.890625, 0.07550000306218863, 0.9820000231266022, 0.2240000069141388, 192.0, 0.0, 0.0, 0.0, 0.0, 0.0, 0.0, 0.0, 0.0, 0.0, 1.6283199309613354E9, 2021-08-07 01:05:30.961
24.0, 879575.8125, 914721.28125, -1300975.03125, -1170720.0, 106360.86328125, -847763.15625, -183188.98828125, -500017.96875, -119653.359375, 450546.234375, -1276794.375, -1336252.5, 412441.6875, 355887.8671875, -836989.3125, -759955.6875, 0.07550000306218863, 0.9820000231266022, 0.2240000069141388, 192.0, 0.0, 0.0, 0.0, 0.0, 0.0, 0.0, 0.0, 0.0, 0.0, 1.6283199309613395E9, 2021-08-07 01:05:30.961
26.0, 881080.5, 915149.4375, -1299424.6875, -1169314.5, 93056.56640625, -858671.15625, -180479.42578125, -497245.125, -120001.5, 454717.59375, -1276858.6875, -1332526.40625, 412030.265625, 354998.4375, -836829.46875, -759977.71875, 0.08775000227615237, 0.977000042796135, 0.23000001162290573, 192.0, 1.5, 16.0, 15.0, 48.0, 3.5, 48.0, 0.0, 0.0, 0.0, 1.6283199309613433E9, 2021-08-07 01:05:30.961
28.0, 879616.03125, 914796.46875, -1300435.875, -1170135.28125, 105168.890625, -847906.40625, -182532.92578125, -499172.015625, -120070.7109375, 447596.90625, -1277529.28125, -1338835.5, 412544.15625, 355745.6953125, -836832.09375, -759341.484375, 0.08775000227615237, 0.977000042796135, 0.23000001162290573, 192.0, 0.0, 0.0, 0.0, 0.0, 0.0, 0.0, 0.0, 0.0, 0.0, 1.628319930961347E9, 2021-08-07 01:05:30.961
30.0, 881049.9375, 914908.03125, -1299402.65625, -1169535.0, 94765.13671875, -858238.3125, -180252.50390625, -498240.234375, -119787.99609375, 457633.734375, -1276091.625, -1329730.40625, 411858.046875, 355012.3828125, -836301.5625, -759738.46875, 0.08775000227615237, 0.977000042796135, 0.23000001162290573, 192.0, 0.0, 0.0, 0.0, 0.0, 0.0, 0.0, 0.0, 0.0, 0.0, 1.6283199309613512E9, 2021-08-07 01:05:30.961
32.0, 879857.4375, 914883.84375, -1300189.6875, -1170063.9375, 103825.640625, -848450.90625, -182436.90234375, -499678.96875, -120171.0234375, 444844.40625, -1278078.5625, -1341289.6875, 412771.078125, 355265.578125, -836932.40625, -759884.90625, 0.08775000227615237, 0.977000042796135, 0.23000001162290573, 192.0, 0.0, 0.0, 0.0, 0.0, 0.0, 0.0, 0.0, 0.0, 0.0, 1.6283199309613552E9, 2021-08-07 01:05:30.961
34.0, 881408.8125, 915457.3125, -1299412.3125, -1169656.6875, 96634.634765625, -857221.78125, -180612.99609375, -498130.78125, -119372.26171875, 460454.859375, -1275121.78125, -1327311.65625, 411860.71875, 355292.953125, -836061.75, -760028.109375, 0.08775000227615237, 0.977000042796135, 0.23000001162290573, 192.0, 0.0, 0.0, 0.0, 0.0, 0.0, 0.0, 0.0, 0.0, 0.0, 1.628319930961367E9, 2021-08-07 01:05:30.961
36.0, 880315.03125, 915338.25, -1300149.9375, -1170000.5625, 102192.17578125, -849094.125, -182582.2734375, -499698.28125, -120194.625, 442865.484375, -1278477.1875, -1343249.34375, 413095.078125, 354887.9296875, -837438.84375, -760414.921875, 0.09287500358186662, 0.9755000397562981, 0.23600001260638237, 192.0, 1.5, 8.0, 15.0, 56.0, 3.5, 72.0, 0.0, 0.0, 0.0, 1.6283199309613707E9, 2021-08-07 01:05:30.961
38.0, 881489.8125, 915626.34375, -1299745.5, -1169973.75, 98831.3671875, -855862.40625, -181203.62109375, -499048.640625, -118858.88671875, 462676.78125, -1274150.25, -1325377.21875, 412015.78125, 355738.734375, -836059.125, -759906.890625, 0.09287500358186662, 0.9755000397562981, 0.23600001260638237, 192.0, 0.0, 0.0, 0.0, 0.0, 0.0, 0.0, 0.0, 0.0, 0.0, 1.6283199309613748E9, 2021-08-07 01:05:30.961
40.0, 880350.46875, 915209.53125, -1300137.65625, -1169950.125, 100129.55859375, -850342.96875, -182525.4140625, -499301.8125, -120269.73046875, 441244.875, -1278926.71875, -1344861.28125, 413107.96875, 354492.5859375, -837842.8125, -760677.75, 0.09287500358186662, 0.9755000397562981, 0.23600001260638237, 192.0, 0.0, 0.0, 0.0, 0.0, 0.0, 0.0, 0.0, 0.0, 0.0, 1.62831993096138E9, 2021-08-07 01:05:30.961
42.0, 881252.15625, 915521.71875, -1299868.875, -1170025.3125, 100736.2734375, -854728.875, -181491.69140625, -498611.953125, -118915.20703125, 463867.6875, -1273992.0, -1324336.5, 411746.484375, 355813.828125, -836102.0625, -759759.375, 0.09287500358186662, 0.9755000397562981, 0.23600001260638237, 192.0, 0.0, 0.0, 0.0, 0.0, 0.0, 0.0, 0.0, 0.0, 0.0, 1.6283199309613838E9, 2021-08-07 01:05:30.961
44.0, 880493.625, 915284.625, -1299851.15625, -1169636.90625, 98006.314453125, -851697.46875, -181962.6796875, -498819.5625, -120372.1875, 440340.984375, -1279331.15625, -1345593.5625, 413220.609375, 354526.359375, -837832.03125, -760302.234375, 0.09287500358186662, 0.9755000397562981, 0.23600001260638237, 192.0, 0.0, 0.0, 0.0, 0.0, 0.0, 0.0, 0.0, 0.0, 0.0, 1.6283199309613879E9, 2021-08-07 01:05:30.961
46.0, 881292.9375, 915697.125, -1299788.90625, -1169897.625, 102754.8984375, -853185.5625, -181139.25, -498835.125, -118884.6328125, 464399.296875, -1273828.875, -1323843.0, 411723.9375, 356167.875, -835934.15625, -759366.140625, 0.09243750560563058, 0.9787500463426113, 0.2400000151246786, 192.0, 1.0, 112.0, 15.0, 88.0, 3.5, 80.0, 0.0, 0.0, 0.0, 1.6283199309613917E9, 2021-08-07 01:05:30.961
48.0, 880668.0, 915276.0, -1299577.03125, -1169307.46875, 96069.22265625, -853127.625, -181258.875, -498208.546875, -120458.015625, 440349.5625, -1279528.59375, -1345674.5625, 413372.4375, 354430.875, -837652.3125, -760084.96875, 0.09243750560563058, 0.9787500463426113, 0.2400000151246786, 192.0, 0.0, 0.0, 0.0, 0.0, 0.0, 0.0, 0.0, 0.0, 0.0, 1.6283199309613955E9, 2021-08-07 01:05:30.961
50.0, 881091.28125, 915735.75, -1299671.4375, -1169720.0625, 104525.6953125, -851677.03125, -181272.8203125, -498480.5625, -118816.5, 464245.875, -1273770.46875, -1324014.65625, 411944.953125, 356480.0859375, -835599.375, -758801.8125, 0.09243750560563058, 0.9787500463426113, 0.2400000151246786, 192.0, 0.0, 0.0, 0.0, 0.0, 0.0, 0.0, 0.0, 0.0, 0.0, 1.6283199309613996E9, 2021-08-07 01:05:30.961
52.0, 880911.5625, 915464.8125, -1299126.9375, -1168868.71875, 94454.537109375, -854462.25, -180961.6875, -497972.015625, -120377.5546875, 441380.578125, -1279381.59375, -1344895.6875, 413334.328125, 354693.75, -837276.28125, -759597.890625, 0.09243750560563058, 0.9787500463426113, 0.2400000151246786, 192.0, 0.0, 0.0, 0.0, 0.0, 0.0, 0.0, 0.0, 0.0, 0.0, 1.6283199309614034E9, 2021-08-07 01:05:30.961
54.0, 880913.15625, 915753.46875, -1299788.90625, -1169871.84375, 106186.5234375, -850334.34375, -181866.12890625, -498965.484375, -118722.6328125, 463280.8125, -1273762.96875, -1324778.53125, 411925.640625, 356768.15625, -835418.625, -758532.0, 0.09243750560563058, 0.9787500463426113, 0.2400000151246786, 192.0, 0.0, 0.0, 0.0, 0.0, 0.0, 0.0, 0.0, 0.0, 0.0, 1.6283199309614074E9, 2021-08-07 01:05:30.961
56.0, 880995.1875, 915265.3125, -1299250.875, -1169255.4375, 93199.798828125, -855980.90625, -181174.11328125, -498895.21875, -120376.4765625, 442532.859375, -1279206.1875, -1343647.3125, 413138.015625, 354221.671875, -837447.375, -760219.078125, 0.09000000357627869, 0.9780000448226929, 0.24800001084804535, 192.0, 1.0, 104.0, 15.0, 72.0, 3.5, 96.0, 0.0, 0.0, 0.0, 1.6283199309614112E9, 2021-08-07 01:05:30.961
58.0, 880773.65625, 915608.0625, -1300201.5, -1170386.25, 107119.921875, -849115.03125, -182412.76171875, -499846.3125, -118933.453125, 461077.6875, -1274077.3125, -1326561.1875, 411951.9375, 356108.8828125, -835996.3125, -759480.9375, 0.09000000357627869, 0.9780000448226929, 0.24800001084804535, 192.0, 0.0, 0.0, 0.0, 0.0, 0.0, 0.0, 0.0, 0.0, 0.0, 1.6283199309614153E9, 2021-08-07 01:05:30.961
60.0, 881434.03125, 915537.75, -1299395.15625, -1169361.1875, 92204.162109375, -856867.6875, -180943.44140625, -498453.703125, -120135.08203125, 444317.0625, -1278641.90625, -1341910.3125, 413127.28125, 353972.2265625, -837680.8125, -760763.578125, 0.09000000357627869, 0.9780000448226929, 0.24800001084804535, 192.0, 0.0, 0.0, 0.0, 0.0, 0.0, 0.0, 0.0, 0.0, 0.0, 1.628319930961419E9, 2021-08-07 01:05:30.961
62.0, 880680.84375, 915875.25, -1300418.15625, -1170308.53125, 107713.23046875, -847845.84375, -182581.734375, -499902.09375, -118894.2890625, 458827.828125, -1274460.84375, -1328807.71875, 412203.515625, 356259.609375, -836400.84375, -759670.875, 0.09000000357627869, 0.9780000448226929, 0.24800001084804535, 192.0, 0.0, 0.0, 0.0, 0.0, 0.0, 0.0, 0.0, 0.0, 0.0, 1.628319930961423E9, 2021-08-07 01:05:30.961
64.0, 881293.5, 915687.46875, -1299417.75, -1169318.8125, 91782.515625, -857628.375, -180880.1484375, -498673.125, -119958.5859375, 447122.15625, -1278079.6875, -1339650.28125, 412925.0625, 354318.234375, -837578.8125, -760580.671875, 0.09000000357627869, 0.9780000448226929, 0.24800001084804535, 192.0, 0.0, 0.0, 0.0, 0.0, 0.0, 0.0, 0.0, 0.0, 0.0, 1.6283199309614267E9, 2021-08-07 01:05:30.961
66.0, 880250.625, 915637.03125, -1300296.375, -1170160.96875, 107673.0, -847395.75, -182537.21484375, -499514.25, -119201.671875, 456125.765625, -1275224.15625, -1331349.46875, 412267.875, 356151.2578125, -836522.625, -759440.203125, 0.10000000149011612, 0.9800000190734863, 0.24400001764297485, 192.0, 1.5, 16.0, 15.0, 80.0, 3.5, 80.0, 0.0, 0.0, 0.0, 1.6283199309614308E9, 2021-08-07 01:05:30.961
68.0, 881214.65625, 915218.625, -1299209.0625, -1169124.5625, 91676.841796875, -858489.84375, -180470.30859375, -498052.453125, -120062.66015625, 450030.703125, -1277703.09375, -1337060.34375, 412662.1875, 354428.7421875, -837136.3125, -760140.234375, 0.10000000149011612, 0.9800000190734863, 0.24400001764297485, 192.0, 0.0, 0.0, 0.0, 0.0, 0.0, 0.0, 0.0, 0.0, 0.0, 1.628319930961436E9, 2021-08-07 01:05:30.961
70.0, 880212.0, 915289.40625, -1300244.34375, -1169934.09375, 106970.80078125, -847202.0625, -182334.43359375, -499796.4375, -119631.36328125, 452970.9375, -1276046.0625, -1334136.28125, 412349.953125, 356003.7421875, -836473.21875, -759332.34375, 0.10000000149011612, 0.9800000190734863, 0.24400001764297485, 192.0, 0.0, 0.0, 0.0, 0.0, 0.0, 0.0, 0.0, 0.0, 0.0, 1.62831993096144E9, 2021-08-07 01:05:30.961
72.0, 881571.9375, 915463.21875, -1299196.21875, -1169058.5625, 92294.28515625, -858489.375, -179912.40234375, -497580.9375, -119941.41796875, 453069.140625, -1276942.96875, -1334263.40625, 412507.6875, 354856.828125, -836700.65625, -759910.640625, 0.10000000149011612, 0.9800000190734863, 0.24400001764297485, 192.0, 0.0, 0.0, 0.0, 0.0, 0.0, 0.0, 0.0, 0.0, 0.0, 1.628319930961444E9, 2021-08-07 01:05:30.961
74.0, 880300.5, 915383.8125, -1300409.0625, -1170008.0625, 106109.8125, -847179.5625, -182221.25390625, -499163.4375, -119645.30859375, 450037.6875, -1276595.34375, -1337037.84375, 412683.65625, 355986.5625, -836557.5, -759166.59375, 0.10000000149011612, 0.9800000190734863, 0.24400001764297485, 192.0, 0.0, 0.0, 0.0, 0.0, 0.0, 0.0, 0.0, 0.0, 0.0, 1.6283199309614477E9, 2021-08-07 01:05:30.961
76.0, 881600.34375, 915446.0625, -1299484.21875, -1169415.84375, 93737.314453125, -858100.96875, -180231.5859375, -497761.6875, -119501.00390625, 456300.140625, -1276093.21875, -1331720.0625, 412356.421875, 355015.6171875, -836422.3125, -759715.921875, 0.10200000554323196, 0.9760000705718994, 0.242000013589859, 192.0, 1.5, 24.0, 15.0, 64.0, 3.5, 72.0, 0.0, 0.0, 0.0, 1.6283199309614515E9, 2021-08-07 01:05:30.961
78.0, 880433.53125, 915410.15625, -1300472.90625, -1170119.15625, 104861.5078125, -847565.8125, -182405.25, -499866.1875, -119897.9765625, 446970.328125, -1277367.84375, -1340066.0625, 412746.9375, 355312.8046875, -837049.40625, -759804.421875, 0.10200000554323196, 0.9760000705718994, 0.242000013589859, 192.0, 0.0, 0.0, 0.0, 0.0, 0.0, 0.0, 0.0, 0.0, 0.0, 1.6283199309614556E9, 2021-08-07 01:05:30.961
80.0, 881846.53125, 915705.65625, -1299489.09375, -1169469.0, 95502.744140625, -857267.34375, -180519.1171875, -498520.78125, -119160.36328125, 459137.90625, -1275178.59375, -1329124.78125, 412240.546875, 355176.0, -836206.125, -759816.234375, 0.10200000554323196, 0.9760000705718994, 0.242000013589859, 192.0, 0.0, 0.0, 0.0, 0.0, 0.0, 0.0, 0.0, 0.0, 0.0, 1.6283199309614596E9, 2021-08-07 01:05:30.961
82.0, 880822.5, 915822.09375, -1299908.53125, -1169509.21875, 103545.08203125, -847699.3125, -182177.80078125, -499595.8125, -119744.015625, 444653.953125, -1277597.90625, -1342006.40625, 413293.03125, 355369.125, -836962.5, -759737.90625, 0.10200000554323196, 0.9760000705718994, 0.242000013589859, 192.0, 0.0, 0.0, 0.0, 0.0, 0.0, 0.0, 0.0, 0.0, 0.0, 1.6283199309614635E9, 2021-08-07 01:05:30.961
84.0, 881827.21875, 915785.0625, -1299537.375, -1169635.3125, 97377.0703125, -856274.90625, -181075.40625, -499021.265625, -118932.375, 461628.609375, -1274361.5625, -1326638.90625, 412250.203125, 355566.5390625, -835976.53125, -759685.875, 0.10200000554323196, 0.9760000705718994, 0.242000013589859, 192.0, 0.0, 0.0, 0.0, 0.0, 0.0, 0.0, 0.0, 0.0, 0.0, 1.6283199309614675E9, 2021-08-07 01:05:30.961
86.0, 880654.03125, 915422.4375, -1300104.375, -1169833.78125, 101491.58203125, -849105.9375, -182562.9609375, -499296.984375, -120182.82421875, 442399.828125, -1278527.0625, -1344025.03125, 413187.375, 354777.421875, -837650.15625, -760290.984375, 0.10200000554323196, 0.9740000367164612, 0.242000013589859, 192.0, 1.5, 24.0, 15.0, 56.0, 3.5, 72.0, 0.0, 0.0, 0.0, 1.6283199309614713E9, 2021-08-07 01:05:30.961
88.0, 881936.71875, 915917.625, -1299652.125, -1169753.25, 99477.7734375, -855089.90625, -181247.07421875, -498824.953125, -118968.85546875, 463264.21875, -1274018.25, -1325185.6875, 412031.859375, 355888.921875, -836306.90625, -759770.625, 0.10200000554323196, 0.9740000367164612, 0.242000013589859, 192.0, 0.0, 0.0, 0.0, 0.0, 0.0, 0.0, 0.0, 0.0, 0.0, 1.6283199309614751E9, 2021-08-07 01:05:30.961
90.0, 880807.96875, 915622.03125, -1299921.9375, -1169520.46875, 99482.6015625, -850261.96875, -182096.7890625, -498892.546875, -120265.96875, 441240.5625, -1278854.34375, -1345247.0625, 413429.296875, 355115.390625, -837869.625, -760149.375, 0.10200000554323196, 0.9740000367164612, 0.242000013589859, 192.0, 0.0, 0.0, 0.0, 0.0, 0.0, 0.0, 0.0, 0.0, 0.0, 1.6283199309614792E9, 2021-08-07 01:05:30.961
92.0, 881570.25, 915967.5, -1299804.46875, -1169674.40625, 101469.046875, -853799.25, -181183.23046875, -498768.09375, -118978.51171875, 464449.734375, -1273850.90625, -1324207.21875, 411919.734375, 356609.3671875, -836069.25, -759230.953125, 0.10200000554323196, 0.9740000367164612, 0.242000013589859, 192.0, 0.0, 0.0, 0.0, 0.0, 0.0, 0.0, 0.0, 0.0, 0.0, 1.628319930961483E9, 2021-08-07 01:05:30.961
94.0, 880603.59375, 915365.0625, -1299871.59375, -1169304.84375, 97295.53125, -851924.90625, -181734.69140625, -498829.78125, -120699.41015625, 440492.25, -1279483.03125, -1345892.90625, 413366.015625, 354916.8984375, -837872.25, -760145.0625, 0.10200000554323196, 0.9740000367164612, 0.242000013589859, 192.0, 0.0, 0.0, 0.0, 0.0, 0.0, 0.0, 0.0, 0.0, 0.0, 1.6283199309614868E9, 2021-08-07 01:05:30.961
96.0, 881445.28125, 915863.90625, -1299888.75, -1169649.75, 103346.58984375, -852409.875, -181093.11328125, -498653.296875, -119064.87890625, 464610.65625, -1273767.1875, -1323917.53125, 412065.140625, 356874.9140625, -835794.09375, -758977.78125, 0.10400000214576721, 0.9820000529289246, 0.23800000548362732, 192.0, 1.5, 32.0, 15.0, 88.0, 3.5, 56.0, 0.0, 0.0, 0.0, 1.6283199309614909E9, 2021-08-07 01:05:30.961
98.0, 881047.21875, 915469.125, -1299941.8125, -1169331.65625, 95345.02734375, -853335.75, -181325.9296875, -498694.59375, -120576.57421875, 440652.65625, -1279477.125, -1345763.0625, 413618.109375, 354816.5859375, -837689.34375, -760203.0, 0.10400000214576721, 0.9820000529289246, 0.23800000548362732, 192.0, 0.0, 0.0, 0.0, 0.0, 0.0, 0.0, 0.0, 0.0, 0.0, 1.6283199309614947E9, 2021-08-07 01:05:30.961
100.0, 881280.65625, 915794.71875, -1300763.625, -1170330.0, 104828.25, -851067.09375, -181829.109375, -499491.1875, -118900.72265625, 464100.515625, -1273692.65625, -1324580.625, 412162.21875, 356817.515625, -835937.90625, -759393.515625, 0.10400000214576721, 0.9820000529289246, 0.23800000548362732, 192.0, 0.0, 0.0, 0.0, 0.0, 0.0, 0.0, 0.0, 0.0, 0.0, 1.6283199309614987E9, 2021-08-07 01:05:30.961
102.0, 881419.59375, 915623.0625, -1300452.5625, -1169639.53125, 93599.982421875, -854938.125, -181410.15234375, -498888.75, -120445.67578125, 441766.828125, -1279382.71875, -1345239.46875, 413455.59375, 354689.4375, -838099.21875, -760813.5, 0.10400000214576721, 0.9820000529289246, 0.23800000548362732, 192.0, 0.0, 0.0, 0.0, 0.0, 0.0, 0.0, 0.0, 0.0, 0.0, 1.628319930961507E9, 2021-08-07 01:05:30.961
104.0, 881138.4375, 915808.6875, -1301236.21875, -1170510.75, 106096.39453125, -849851.0625, -182354.82421875, -499718.625, -118830.984375, 462929.484375, -1273880.4375, -1325960.34375, 412073.15625, 356983.8046875, -836362.21875, -759601.640625, 0.10200000181794167, 0.9780000448226929, 0.23800000548362732, 192.0, 1.5, 16.0, 15.0, 56.0, 3.5, 56.0, 0.0, 0.0, 0.0, 1.6283199309615111E9, 2021-08-07 01:05:30.961
106.0, 881566.5, 915618.28125, -1300425.1875, -1169486.71875, 92330.2265625, -856321.03125, -181076.484375, -498313.6875, -120247.734375, 443484.515625, -1279150.96875, -1343655.9375, 413422.875, 355040.8125, -838075.59375, -760693.3125, 0.10200000181794167, 0.9780000448226929, 0.23800000548362732, 192.0, 0.0, 0.0, 0.0, 0.0, 0.0, 0.0, 0.0, 0.0, 0.0, 1.6283199309615152E9, 2021-08-07 01:05:30.961
108.0, 880728.65625, 915490.59375, -1301229.28125, -1170460.875, 106939.1484375, -849001.875, -182270.6015625, -499614.046875, -119041.27734375, 460745.625, -1274575.125, -1327697.34375, 412164.890625, 357109.3359375, -836419.03125, -759387.09375, 0.10200000181794167, 0.9780000448226929, 0.23800000548362732, 192.0, 0.0, 0.0, 0.0, 0.0, 0.0, 0.0, 0.0, 0.0, 0.0, 1.628319930961519E9, 2021-08-07 01:05:30.961
110.0, 881329.96875, 915372.5625, -1300376.90625, -1169616.46875, 91418.8125, -857700.28125, -180777.15234375, -498344.8125, -120345.36328125, 445637.8125, -1278909.0, -1341590.0625, 413127.28125, 355262.90625, -837595.96875, -760388.0625, 0.10200000181794167, 0.9780000448226929, 0.23800000548362732, 192.0, 0.0, 0.0, 0.0, 0.0, 0.0, 0.0, 0.0, 0.0, 0.0, 1.6283199309615228E9, 2021-08-07 01:05:30.961
112.0, 880387.96875, 915271.6875, -1301552.25, -1170842.8125, 107256.71484375, -848578.59375, -182527.01953125, -499826.484375, -119539.62890625, 458170.171875, -1275419.4375, -1330157.4375, 412039.359375, 357120.609375, -836516.15625, -759739.5, 0.10200000181794167, 0.9780000448226929, 0.23800000548362732, 192.0, 0.0, 0.0, 0.0, 0.0, 0.0, 0.0, 0.0, 0.0, 0.0, 1.6283199309615269E9, 2021-08-07 01:05:30.961
114.0, 881202.28125, 915138.65625, -1300440.75, -1169744.71875, 91435.974609375, -858676.03125, -180556.67578125, -497941.96875, -120504.15234375, 448243.3125, -1278556.59375, -1339160.0625, 412733.015625, 355236.09375, -837377.71875, -760380.046875, 0.10000000335276127, 0.9750000536441803, 0.24000000953674316, 192.0, 1.5, 8.0, 15.0, 48.0, 3.5, 72.0, 0.0, 0.0, 0.0, 1.6283199309615307E9, 2021-08-07 01:05:30.961
116.0, 880238.34375, 915254.53125, -1301673.46875, -1170730.6875, 107224.53515625, -848007.84375, -182670.78515625, -499604.390625, -119797.65234375, 455315.203125, -1276031.53125, -1332599.34375, 412154.71875, 356942.5078125, -836797.78125, -759744.328125, 0.10000000335276127, 0.9750000536441803, 0.24000000953674316, 192.0, 0.0, 0.0, 0.0, 0.0, 0.0, 0.0, 0.0, 0.0, 0.0, 1.6283199309615347E9, 2021-08-07 01:05:30.961
118.0, 881212.5, 915006.1875, -1300734.1875, -1169812.3125, 91775.009765625, -859066.03125, -180971.34375, -498168.328125, -120269.19140625, 451246.828125, -1277828.625, -1336386.09375, 412565.625, 355557.421875, -837473.71875, -760381.125, 0.10000000335276127, 0.9750000536441803, 0.24000000953674316, 192.0, 0.0, 0.0, 0.0, 0.0, 0.0, 0.0, 0.0, 0.0, 0.0, 1.6283199309615388E9, 2021-08-07 01:05:30.961
120.0, 880115.4375, 915112.96875, -1301852.625, -1170746.25, 106763.19140625, -847726.21875, -183289.30078125, -500205.1875, -120012.7734375, 452156.109375, -1276696.6875, -1335360.375, 412297.921875, 356855.6015625, -837450.65625, -759990.046875, 0.10000000335276127, 0.9750000536441803, 0.24000000953674316, 192.0, 0.0, 0.0, 0.0, 0.0, 0.0, 0.0, 0.0, 0.0, 0.0, 1.6283199314445076E9, 2021-08-07 01:05:31.444
122.0, 881337.46875, 915095.71875, -1300755.09375, -1169963.53125, 92659.599609375, -859087.5, -181017.46875, -498467.109375, -119903.87109375, 454434.375, -1276940.25, -1333451.71875, 412580.625, 355935.609375, -837339.09375, -760347.328125, 0.10000000335276127, 0.9750000536441803, 0.24000000953674316, 192.0, 0.0, 0.0, 0.0, 0.0, 0.0, 0.0, 0.0, 0.0, 0.0, 1.6283199314446487E9, 2021-08-07 01:05:31.444
124.0, 879904.125, 914752.40625, -1301834.90625, -1170879.84375, 105616.27734375, -847986.84375, -183165.92578125, -499848.46875, -120162.97265625, 448904.71875, -1277438.625, -1338150.9375, 412543.078125, 356323.9921875, -837646.96875, -760188.0, 0.10100000444799662, 0.9755000621080399, 0.24400001019239426, 192.0, 1.5, 24.0, 15.0, 64.0, 3.5, 96.0, 0.0, 0.0, 0.0, 1.6283199314446547E9, 2021-08-07 01:05:31.444
126.0, 881119.6875, 914805.0, -1300816.78125, -1170267.1875, 93985.1484375, -858791.90625, -180784.125, -498399.0, -119754.2109375, 457135.875, -1276304.625, -1330817.8125, 412405.78125, 355852.453125, -836909.34375, -760349.4375, 0.10100000444799662, 0.9755000621080399, 0.24400001019239426, 192.0, 0.0, 0.0, 0.0, 0.0, 0.0, 0.0, 0.0, 0.0, 0.0, 1.6283199314446588E9, 2021-08-07 01:05:31.444
128.0, 879626.71875, 914508.9375, -1301832.28125, -1170996.1875, 104120.14453125, -848797.40625, -182849.42578125, -499994.390625, -120383.98828125, 445821.28125, -1278374.15625, -1340894.90625, 412817.765625, 355795.0546875, -837732.28125, -760554.890625, 0.10100000444799662, 0.9755000621080399, 0.24400001019239426, 192.0, 0.0, 0.0, 0.0, 0.0, 0.0, 0.0, 0.0, 0.0, 0.0, 1.6283199314446628E9, 2021-08-07 01:05:31.444
130.0, 880870.78125, 914739.0, -1301080.6875, -1170550.96875, 95660.455078125, -858351.46875, -181001.37890625, -498635.578125, -119949.46875, 459403.96875, -1276047.09375, -1328692.40625, 411850.03125, 355736.0390625, -836941.03125, -760460.484375, 0.10100000444799662, 0.9755000621080399, 0.24400001019239426, 192.0, 0.0, 0.0, 0.0, 0.0, 0.0, 0.0, 0.0, 0.0, 0.0, 1.6283199314446669E9, 2021-08-07 01:05:31.444
132.0, 879368.71875, 914411.8125, -1301689.59375, -1170802.59375, 102337.0078125, -849701.90625, -182687.953125, -499318.453125, -120823.3359375, 443266.734375, -1279150.40625, -1343224.125, 412802.71875, 355628.765625, -837847.03125, -760399.359375, 0.10100000444799662, 0.9755000621080399, 0.24400001019239426, 192.0, 0.0, 0.0, 0.0, 0.0, 0.0, 0.0, 0.0, 0.0, 0.0, 1.628319931444671E9, 2021-08-07 01:05:31.444
134.0, 880789.78125, 914889.75, -1300911.1875, -1170394.3125, 97621.6875, -857271.65625, -180921.4453125, -498444.609375, -119963.4140625, 461499.84375, -1275509.625, -1326640.5, 411590.390625, 356056.3125, -836528.53125, -759971.8125, 0.10250000329688191, 0.9747500494122505, 0.2460000105202198, 192.0, 1.5, 32.0, 15.0, 56.0, 3.5, 96.0, 0.0, 0.0, 0.0, 1.628319931444675E9, 2021-08-07 01:05:31.444
138.0, 880960.3125, 915206.25, -1301019.5625, -1170466.78125, 99763.16015625, -855652.125, -181298.02734375, -499266.421875, -119409.80859375, 463694.953125, -1274487.65625, -1324828.96875, 411681.5625, 356682.8671875, -836140.125, -759756.140625, 0.10250000329688191, 0.9747500494122505, 0.2460000105202198, 192.0, 0.0, 0.0, 0.0, 0.0, 0.0, 0.0, 0.0, 0.0, 0.0, 1.628319931444681E9, 2021-08-07 01:05:31.444
140.0, 880399.78125, 915109.21875, -1301087.15625, -1170186.1875, 98528.2734375, -851580.46875, -182236.8046875, -499444.546875, -120750.9140625, 440794.265625, -1279577.4375, -1345631.15625, 412978.6875, 355357.8515625, -838071.84375, -760774.875, 0.10250000329688191, 0.9747500494122505, 0.2460000105202198, 192.0, 0.0, 0.0, 0.0, 0.0, 0.0, 0.0, 0.0, 0.0, 0.0, 1.6283199314446929E9, 2021-08-07 01:05:31.444
142.0, 881273.0625, 915479.34375, -1301164.875, -1170586.96875, 101851.53515625, -854076.0, -181830.1875, -499635.515625, -118876.58203125, 464604.234375, -1273952.25, -1324156.3125, 411713.203125, 357024.5859375, -836341.3125, -759969.140625, 0.10250000329688191, 0.9747500494122505, 0.2460000105202198, 192.0, 0.0, 0.0, 0.0, 0.0, 0.0, 0.0, 0.0, 0.0, 0.0, 1.628319931444697E9, 2021-08-07 01:05:31.444
144.0, 880283.34375, 914759.90625, -1301317.21875, -1170333.1875, 96454.927734375, -853121.15625, -182413.828125, -499391.953125, -120621.6328125, 440405.34375, -1279701.375, -1346099.4375, 412938.984375, 355064.953125, -838540.6875, -760976.578125, 0.1080000028014183, 0.9740000367164612, 0.24400001764297485, 192.0, 1.5, 48.0, 15.0, 56.0, 3.5, 80.0, 0.0, 0.0, 0.0, 1.6283199314447021E9, 2021-08-07 01:05:31.444
146.0, 880735.59375, 915216.46875, -1301426.71875, -1170845.53125, 103524.15234375, -852835.78125, -182175.65625, -499373.71875, -119336.84765625, 464361.234375, -1274253.28125, -1324500.09375, 411236.34375, 356742.421875, -836736.65625, -759919.21875, 0.1080000028014183, 0.9740000367164612, 0.24400001764297485, 192.0, 0.0, 0.0, 0.0, 0.0, 0.0, 0.0, 0.0, 0.0, 0.0, 1.6283199314447062E9, 2021-08-07 01:05:31.444
148.0, 880322.53125, 914740.59375, -1300840.875, -1170092.34375, 94579.5234375, -854648.4375, -181865.05078125, -499055.625, -120860.8828125, 440677.3125, -1280083.78125, -1345944.9375, 412800.046875, 354793.5234375, -838373.8125, -760704.5625, 0.1080000028014183, 0.9740000367164612, 0.24400001764297485, 192.0, 0.0, 0.0, 0.0, 0.0, 0.0, 0.0, 0.0, 0.0, 0.0, 1.6283199314447105E9, 2021-08-07 01:05:31.444
150.0, 880661.0625, 915137.0625, -1300981.96875, -1170632.53125, 105241.83984375, -851457.09375, -181998.62109375, -499478.34375, -119294.47265625, 463401.515625, -1274530.59375, -1325142.28125, 411470.203125, 356879.203125, -836257.59375, -759427.3125, 0.1080000028014183, 0.9740000367164612, 0.24400001764297485, 192.0, 0.0, 0.0, 0.0, 0.0, 0.0, 0.0, 0.0, 0.0, 0.0, 1.6283199314447148E9, 2021-08-07 01:05:31.444
152.0, 880273.21875, 914434.875, -1300506.65625, -1170042.46875, 93215.888671875, -856381.6875, -181450.3828125, -498623.25, -120992.30859375, 441754.5, -1280168.625, -1344757.78125, 412638.5625, 354506.53125, -838014.9375, -760583.859375, 0.1080000028014183, 0.9740000367164612, 0.24400001764297485, 192.0, 0.0, 0.0, 0.0, 0.0, 0.0, 0.0, 0.0, 0.0, 0.0, 1.6283199314447193E9, 2021-08-07 01:05:31.444
154.0, 880303.21875, 914856.46875, -1300958.34375, -1170840.65625, 106478.34375, -850314.0, -182063.00390625, -499731.0, -119482.76953125, 461807.765625, -1275021.9375, -1326512.90625, 411353.8125, 356582.015625, -836093.4375, -759445.03125, 0.10200000554323196, 0.9780000448226929, 0.2460000067949295, 192.0, 1.5, 24.0, 15.0, 72.0, 3.5, 88.0, 0.0, 0.0, 0.0, 1.6283199314447231E9, 2021-08-07 01:05:31.444
156.0, 880823.0625, 914824.3125, -1299985.3125, -1169721.65625, 92257.271484375, -857329.59375, -180680.58984375, -498202.125, -120723.0234375, 443721.09375, -1279790.90625, -1343113.59375, 412805.390625, 354522.0703125, -837423.28125, -760545.796875, 0.10200000554323196, 0.9780000448226929, 0.2460000067949295, 192.0, 0.0, 0.0, 0.0, 0.0, 0.0, 0.0, 0.0, 0.0, 0.0, 1.6283199314447277E9, 2021-08-07 01:05:31.444
158.0, 880287.65625, 915058.78125, -1301093.0625, -1170932.90625, 107460.5625, -849091.40625, -182549.5546875, -500918.671875, -119591.66015625, 459768.234375, -1275255.84375, -1328401.6875, 411605.390625, 356606.6953125, -836086.96875, -759666.5625, 0.10200000554323196, 0.9780000448226929, 0.2460000067949295, 192.0, 0.0, 0.0, 0.0, 0.0, 0.0, 0.0, 0.0, 0.0, 0.0, 1.628319931444732E9, 2021-08-07 01:05:31.444
160.0, 881533.78125, 915412.78125, -1299898.875, -1169497.40625, 92057.712890625, -857859.5625, -180850.1015625, -498107.15625, -120401.15625, 446449.453125, -1278900.46875, -1340795.625, 412747.5, 354800.484375, -837517.125, -760748.578125, 0.10200000554323196, 0.9780000448226929, 0.2460000067949295, 192.0, 0.0, 0.0, 0.0, 0.0, 0.0, 0.0, 0.0, 0.0, 0.0, 1.628319931444736E9, 2021-08-07 01:05:31.444
162.0, 880445.90625, 915294.75, -1301423.4375, -1171003.78125, 107819.44921875, -848041.59375, -183266.23828125, -500315.15625, -119260.67578125, 457436.296875, -1275300.375, -1330610.71875, 412029.703125, 356820.1875, -836696.90625, -759663.890625, 0.10200000554323196, 0.9780000448226929, 0.2460000067949295, 192.0, 0.0, 0.0, 0.0, 0.0, 0.0, 0.0, 0.0, 0.0, 0.0, 1.6283199314447403E9, 2021-08-07 01:05:31.444
164.0, 881509.6875, 915321.5625, -1300351.125, -1169898.09375, 91859.2265625, -858633.65625, -181137.6328125, -498378.609375, -120145.8046875, 449146.6875, -1278207.84375, -1338197.0625, 412436.34375, 354960.3515625, -837874.40625, -760790.390625, 0.10600000619888306, 0.9760000705718994, 0.25200000405311584, 192.0, 1.5, 40.0, 15.0, 64.0, 3.5, 112.0, 0.0, 0.0, 0.0, 1.6283199314447448E9, 2021-08-07 01:05:31.444
166.0, 880450.78125, 915325.875, -1301406.28125, -1170873.375, 107438.578125, -847611.375, -183156.26953125, -499946.109375, -119488.6640625, 454294.359375, -1276081.40625, -1333397.0625, 412066.21875, 356589.515625, -837153.46875, -759925.6875, 0.10600000619888306, 0.9760000705718994, 0.25200000405311584, 192.0, 0.0, 0.0, 0.0, 0.0, 0.0, 0.0, 0.0, 0.0, 0.0, 1.628319931444749E9, 2021-08-07 01:05:31.444
168.0, 881531.625, 915233.0625, -1300442.34375, -1170150.28125, 92314.669921875, -859027.96875, -181099.546875, -498755.71875, -120049.25390625, 452020.40625, -1277671.40625, -1335521.90625, 412209.421875, 355000.0546875, -837658.78125, -760643.4375, 0.10600000619888306, 0.9760000705718994, 0.25200000405311584, 192.0, 0.0, 0.0, 0.0, 0.0, 0.0, 0.0, 0.0, 0.0, 0.0, 1.6283199314447532E9, 2021-08-07 01:05:31.444
170.0, 880348.78125, 915207.84375, -1301506.59375, -1171039.6875, 106615.13671875, -847853.34375, -183173.96484375, -500534.578125, -119818.58203125, 450876.703125, -1276955.8125, -1336386.65625, 412182.609375, 356024.109375, -837479.625, -760220.71875, 0.10600000619888306, 0.9760000705718994, 0.25200000405311584, 192.0, 0.0, 0.0, 0.0, 0.0, 0.0, 0.0, 0.0, 0.0, 0.0, 1.6283199314447572E9, 2021-08-07 01:05:31.444
172.0, 881621.25, 915251.90625, -1300320.0, -1170051.0, 93345.708984375, -858979.6875, -180663.9609375, -498156.515625, -119840.0390625, 454964.90625, -1276909.6875, -1332862.6875, 412084.453125, 355130.9296875, -837243.0, -760542.046875, 0.10600000619888306, 0.9760000705718994, 0.25200000405311584, 192.0, 0.0, 0.0, 0.0, 0.0, 0.0, 0.0, 0.0, 0.0, 0.0, 1.6283199314447613E9, 2021-08-07 01:05:31.444
174.0, 880050.5625, 914888.15625, -1301436.84375, -1170841.6875, 105295.48828125, -848187.5625, -182910.57421875, -500262.046875, -120127.03125, 447779.296875, -1277754.09375, -1339135.3125, 412424.015625, 355859.4375, -837414.1875, -760059.796875, 0.09800000488758087, 0.9720000624656677, 0.2580000162124634, 192.0, 1.5, 8.0, 15.0, 48.0, 4.0, 8.0, 0.0, 0.0, 0.0, 1.6283199314447668E9, 2021-08-07 01:05:31.444
176.0, 881351.4375, 915052.3125, -1300309.3125, -1169987.15625, 94544.654296875, -858520.5, -180675.22265625, -498280.453125, -119767.078125, 457654.640625, -1276351.21875, -1330212.1875, 411859.6875, 355374.4921875, -836816.0625, -760172.953125, 0.09800000488758087, 0.9720000624656677, 0.2580000162124634, 192.0, 0.0, 0.0, 0.0, 0.0, 0.0, 0.0, 0.0, 0.0, 0.0, 1.6283199314447708E9, 2021-08-07 01:05:31.444
178.0, 880231.3125, 915131.15625, -1300805.53125, -1170148.125, 103692.59765625, -848544.28125, -182462.6484375, -499094.765625, -120346.44140625, 444891.609375, -1278539.4375, -1341571.3125, 412577.953125, 355650.2109375, -837534.28125, -759824.8125, 0.09800000488758087, 0.9720000624656677, 0.2580000162124634, 192.0, 0.0, 0.0, 0.0, 0.0, 0.0, 0.0, 0.0, 0.0, 0.0, 1.6283199314447749E9, 2021-08-07 01:05:31.444
180.0, 881405.0625, 915179.4375, -1300201.96875, -1170028.5, 96300.966796875, -857561.8125, -180987.43359375, -498809.90625, -119376.01171875, 460414.640625, -1275439.875, -1327585.21875, 411942.796875, 355936.6875, -836313.9375, -759595.21875, 0.09800000488758087, 0.9720000624656677, 0.2580000162124634, 192.0, 0.0, 0.0, 0.0, 0.0, 0.0, 0.0, 0.0, 0.0, 0.0, 1.6283199314447787E9, 2021-08-07 01:05:31.444
182.0, 880209.375, 914819.53125, -1300766.34375, -1170221.0625, 101683.62890625, -849639.65625, -182703.515625, -500043.75, -120473.0390625, 442839.703125, -1279183.125, -1343555.0625, 412757.15625, 355265.578125, -837700.59375, -760398.28125, 0.09800000488758087, 0.9720000624656677, 0.2580000162124634, 192.0, 0.0, 0.0, 0.0, 0.0, 0.0, 0.0, 0.0, 0.0, 0.0, 1.6283199314447827E9, 2021-08-07 01:05:31.444
184.0, 881272.59375, 914953.03125, -1300448.71875, -1170360.0, 98090.00390625, -856635.9375, -181381.72265625, -499272.84375, -119340.609375, 462438.09375, -1275174.28125, -1325939.90625, 411750.234375, 356039.671875, -836389.03125, -760117.734375, 0.10000000149011612, 0.9720000624656677, 0.2540000081062317, 192.0, 1.5, 16.0, 15.0, 48.0, 3.5, 120.0, 0.0, 0.0, 0.0, 1.6283199314447868E9, 2021-08-07 01:05:31.444
186.0, 879864.375, 914428.40625, -1301112.375, -1170607.3125, 99457.39453125, -851078.4375, -182902.53515625, -500136.515625, -120639.33984375, 441092.53125, -1279745.90625, -1345229.8125, 412969.03125, 355123.4296875, -838187.15625, -760836.0, 0.10000000149011612, 0.9720000624656677, 0.2540000081062317, 192.0, 0.0, 0.0, 0.0, 0.0, 0.0, 0.0, 0.0, 0.0, 0.0, 1.6283199314447908E9, 2021-08-07 01:05:31.444
188.0, 880673.34375, 914597.90625, -1301105.90625, -1170909.84375, 99932.68359375, -855538.875, -181863.984375, -499719.1875, -119657.6484375, 463274.953125, -1275017.15625, -1325001.75, 411254.015625, 356063.2734375, -836885.25, -760440.65625, 0.10000000149011612, 0.9720000624656677, 0.2540000081062317, 192.0, 0.0, 0.0, 0.0, 0.0, 0.0, 0.0, 0.0, 0.0, 0.0, 1.628319931444795E9, 2021-08-07 01:05:31.444
190.0, 879677.15625, 914102.25, -1301031.84375, -1170371.8125, 97235.98828125, -852447.375, -182330.14453125, -499398.375, -120986.953125, 439848.0, -1280366.53125, -1346404.125, 412792.546875, 354659.953125, -838582.5, -761050.59375, 0.10000000149011612, 0.9720000624656677, 0.2540000081062317, 192.0, 0.0, 0.0, 0.0, 0.0, 0.0, 0.0, 0.0, 0.0, 0.0, 1.6283199314447987E9, 2021-08-07 01:05:31.444
192.0, 880234.03125, 914284.125, -1301029.6875, -1170788.625, 101749.06640625, -854198.90625, -181827.50390625, -499189.734375, -119543.91796875, 463677.28125, -1274935.03125, -1324533.375, 411231.515625, 356202.2109375, -836547.28125, -759840.375, 0.10000000149011612, 0.9740000665187836, 0.2540000081062317, 192.0, 1.5, 16.0, 15.0, 64.0, 3.5, 120.0, 0.0, 0.0, 0.0, 1.6283199314448028E9, 2021-08-07 01:05:31.444
194.0, 879658.96875, 913861.96875, -1300649.4375, -1170164.71875, 95211.45703125, -854136.09375, -181942.30078125, -499180.59375, -121222.98046875, 439541.671875, -1280791.40625, -1346485.6875, 412667.015625, 354254.390625, -838365.28125, -760818.328125, 0.10000000149011612, 0.9740000665187836, 0.2540000081062317, 192.0, 0.0, 0.0, 0.0, 0.0, 0.0, 0.0, 0.0, 0.0, 0.0, 1.6283199314448068E9, 2021-08-07 01:05:31.444
196.0, 879917.53125, 914015.34375, -1300958.34375, -1170981.75, 103716.73828125, -852815.90625, -182110.74609375, -500196.609375, -119556.2578125, 463253.484375, -1275009.65625, -1324826.8125, 411232.03125, 356062.1953125, -836249.53125, -759811.921875, 0.10000000149011612, 0.9740000665187836, 0.2540000081062317, 192.0, 0.0, 0.0, 0.0, 0.0, 0.0, 0.0, 0.0, 0.0, 0.0, 1.628319931444811E9, 2021-08-07 01:05:31.444
198.0, 879681.46875, 913738.59375, -1300334.53125, -1170032.25, 93874.640625, -855451.5, -181594.1484375, -498996.609375, -121295.94140625, 439974.5625, -1280703.9375, -1345835.53125, 412559.71875, 353833.828125, -838052.53125, -760965.28125, 0.10000000149011612, 0.9740000665187836, 0.2540000081062317, 192.0, 0.0, 0.0, 0.0, 0.0, 0.0, 0.0, 0.0, 0.0, 0.0, 1.628319931444815E9, 2021-08-07 01:05:31.444
200.0, 879721.21875, 914122.6875, -1300890.28125, -1170908.25, 105470.3671875, -851298.84375, -182267.91796875, -499909.078125, -119657.109375, 462321.65625, -1274888.90625, -1325519.34375, 411348.421875, 356159.296875, -836011.875, -759640.265625, 0.10000000149011612, 0.9740000665187836, 0.2540000081062317, 192.0, 0.0, 0.0, 0.0, 0.0, 0.0, 0.0, 0.0, 0.0, 0.0, 1.628319931444819E9, 2021-08-07 01:05:31.444
202.0, 879826.3125, 913763.8125, -1300360.21875, -1170148.6875, 92522.2734375, -856824.1875, -181619.35546875, -499293.796875, -121134.46875, 441687.984375, -1280253.375, -1344484.21875, 412654.6875, 353946.46875, -837966.65625, -760976.578125, 0.10200000181794167, 0.977000042796135, 0.25200000405311584, 192.0, 1.5, 32.0, 15.0, 80.0, 3.5, 104.0, 0.0, 0.0, 0.0, 1.6283199314448233E9, 2021-08-07 01:05:31.444
204.0, 879425.625, 913874.25, -1301388.09375, -1171192.59375, 106668.7734375, -850076.90625, -183090.8203125, -500725.546875, -119819.109375, 460588.453125, -1275277.3125, -1327248.84375, 411211.125, 355949.5546875, -836566.59375, -760218.046875, 0.10200000181794167, 0.977000042796135, 0.25200000405311584, 192.0, 0.0, 0.0, 0.0, 0.0, 0.0, 0.0, 0.0, 0.0, 0.0, 1.6283199314448273E9, 2021-08-07 01:05:31.444
206.0, 880230.28125, 914028.75, -1300426.78125, -1170023.625, 91956.861328125, -857668.03125, -181680.515625, -499170.421875, -121185.43359375, 443705.53125, -1279791.46875, -1342622.71875, 412284.515625, 353956.125, -838328.8125, -761263.03125, 0.10200000181794167, 0.977000042796135, 0.25200000405311584, 192.0, 0.0, 0.0, 0.0, 0.0, 0.0, 0.0, 0.0, 0.0, 0.0, 1.6283199314448311E9, 2021-08-07 01:05:31.444
208.0, 879545.71875, 914205.84375, -1301487.84375, -1171118.53125, 107400.48046875, -848921.90625, -183263.5546875, -500290.5, -119965.03125, 458336.4375, -1275519.28125, -1329281.4375, 411389.203125, 356191.4765625, -837051.0, -760147.734375, 0.10200000181794167, 0.977000042796135, 0.25200000405311584, 192.0, 0.0, 0.0, 0.0, 0.0, 0.0, 0.0, 0.0, 0.0, 0.0, 1.6283199314448369E9, 2021-08-07 01:05:31.444
210.0, 880369.78125, 914155.875, -1300348.96875, -1169950.6875, 91549.166015625, -858501.1875, -181281.3984375, -498584.625, -120865.7109375, 446405.4375, -1279104.84375, -1340338.03125, 412295.25, 354341.296875, -838203.84375, -761039.859375, 0.10200000181794167, 0.977000042796135, 0.25200000405311584, 192.0, 0.0, 0.0, 0.0, 0.0, 0.0, 0.0, 0.0, 0.0, 0.0, 1.628319931444841E9, 2021-08-07 01:05:31.444
212.0, 879360.65625, 914181.65625, -1301450.8125, -1170979.03125, 107527.6171875, -848149.96875, -183219.5625, -500685.84375, -120179.6015625, 455552.296875, -1276129.6875, -1331926.59375, 411474.515625, 356069.71875, -837215.71875, -760031.34375, 0.10300000198185444, 0.9775000438094139, 0.2540000081062317, 192.0, 1.5, 32.0, 15.0, 72.0, 4.0, 0.0, 0.0, 0.0, 0.0, 1.6283199314448447E9, 2021-08-07 01:05:31.444
214.0, 880352.53125, 914133.375, -1300295.34375, -1169966.25, 91633.388671875, -859063.3125, -181005.66796875, -498569.0625, -121024.5, 449416.5, -1278584.4375, -1337769.0, 411986.8125, 354284.4375, -837782.15625, -760662.1875, 0.10300000198185444, 0.9775000438094139, 0.2540000081062317, 192.0, 0.0, 0.0, 0.0, 0.0, 0.0, 0.0, 0.0, 0.0, 0.0, 1.628319931444849E9, 2021-08-07 01:05:31.444
216.0, 879250.21875, 914023.96875, -1301250.75, -1170736.03125, 106968.1171875, -847952.53125, -182893.9453125, -500048.015625, -120431.73046875, 452567.015625, -1277015.34375, -1334758.5, 411826.40625, 355665.7734375, -837151.875, -759762.046875, 0.10300000198185444, 0.9775000438094139, 0.2540000081062317, 192.0, 0.0, 0.0, 0.0, 0.0, 0.0, 0.0, 0.0, 0.0, 0.0, 1.628319931444853E9, 2021-08-07 01:05:31.444
218.0, 880308.0, 913911.28125, -1300263.1875, -1169871.28125, 92162.3203125, -859314.9375, -180882.29296875, -498300.84375, -120843.71484375, 452212.453125, -1278051.28125, -1334977.40625, 411828.0, 354183.5859375, -837415.78125, -760282.921875, 0.10300000198185444, 0.9775000438094139, 0.2540000081062317, 192.0, 0.0, 0.0, 0.0, 0.0, 0.0, 0.0, 0.0, 0.0, 0.0, 1.628319931444857E9, 2021-08-07 01:05:31.444
220.0, 879321.5625, 914281.40625, -1301012.0625, -1170412.03125, 106030.9453125, -847721.90625, -182926.13671875, -499949.859375, -120662.94140625, 449288.296875, -1277717.53125, -1337481.46875, 412061.90625, 355452.796875, -837255.375, -759676.21875, 0.10300000198185444, 0.9775000438094139, 0.2540000081062317, 192.0, 0.0, 0.0, 0.0, 0.0, 0.0, 0.0, 0.0, 0.0, 0.0, 1.628319931444861E9, 2021-08-07 01:05:31.444
222.0, 880721.625, 914557.6875, -1299984.75, -1169744.15625, 93480.890625, -858733.40625, -180778.21875, -498895.734375, -120427.44140625, 455456.296875, -1277089.96875, -1332103.6875, 411819.984375, 354807.46875, -836975.34375, -760126.3125, 0.1025000037625432, 0.9797500483691692, 0.25300000607967377, 192.0, 1.5, 24.0, 15.0, 88.0, 3.5, 112.0, 0.0, 0.0, 0.0, 1.6283199314448652E9, 2021-08-07 01:05:31.444
224.0, 879416.4375, 914425.78125, -1300819.96875, -1170314.4375, 105023.5078125, -847859.25, -182934.71484375, -499898.34375, -120626.4609375, 446636.109375, -1278114.5625, -1339998.46875, 412458.328125, 355399.171875, -837339.5625, -759929.4375, 0.1025000037625432, 0.9797500483691692, 0.25300000607967377, 192.0, 0.0, 0.0, 0.0, 0.0, 0.0, 0.0, 0.0, 0.0, 0.0, 1.6283199314448693E9, 2021-08-07 01:05:31.444
226.0, 880754.34375, 914740.59375, -1300180.03125, -1170074.0625, 95277.97265625, -857956.125, -181153.734375, -499235.859375, -120390.421875, 458430.84375, -1276281.5625, -1329371.53125, 411426.75, 354884.1796875, -836912.0625, -760368.234375, 0.1025000037625432, 0.9797500483691692, 0.25300000607967377, 192.0, 0.0, 0.0, 0.0, 0.0, 0.0, 0.0, 0.0, 0.0, 0.0, 1.628319931444873E9, 2021-08-07 01:05:31.444
228.0, 879582.75, 914733.65625, -1301046.9375, -1170501.09375, 103173.85546875, -848610.1875, -183245.3203125, -500009.953125, -120881.2734375, 444240.890625, -1278757.21875, -1342486.5, 412427.203125, 355134.703125, -837904.5, -760597.3125, 0.1025000037625432, 0.9797500483691692, 0.25300000607967377, 192.0, 0.0, 0.0, 0.0, 0.0, 0.0, 0.0, 0.0, 0.0, 0.0, 1.6283199314448771E9, 2021-08-07 01:05:31.444
230.0, 880683.5625, 914748.65625, -1300742.15625, -1170593.34375, 96821.314453125, -857364.9375, -181761.515625, -499792.125, -119978.9765625, 460998.796875, -1275569.625, -1327366.875, 411499.734375, 355310.109375, -836979.65625, -760522.734375, 0.1025000037625432, 0.9797500483691692, 0.25300000607967377, 192.0, 0.0, 0.0, 0.0, 0.0, 0.0, 0.0, 0.0, 0.0, 0.0, 1.6283199314448812E9, 2021-08-07 01:05:31.444
232.0, 879513.5625, 914329.21875, -1301064.09375, -1170539.71875, 101108.5546875, -850045.21875, -182925.05859375, -500266.875, -121132.86328125, 441663.84375, -1279678.78125, -1344787.875, 412497.515625, 354536.015625, -838456.96875, -761108.53125, 0.10225000465288758, 0.9818750377744436, 0.25350000709295273, 192.0, 1.5, 24.0, 15.0, 96.0, 3.5, 120.0, 0.0, 0.0, 0.0, 1.6283199314448853E9, 2021-08-07 01:05:31.444
234.0, 880686.28125, 914689.6875, -1300412.8125, -1170244.6875, 98823.85546875, -856125.28125, -181288.37109375, -498819.046875, -119927.47265625, 462315.796875, -1275242.4375, -1325924.90625, 411361.3125, 355485.0, -836745.75, -760192.265625, 0.10225000465288758, 0.9818750377744436, 0.25350000709295273, 192.0, 0.0, 0.0, 0.0, 0.0, 0.0, 0.0, 0.0, 0.0, 0.0, 1.6283199314448893E9, 2021-08-07 01:05:31.444
236.0, 879752.25, 914514.75, -1300422.46875, -1169797.78125, 99155.37890625, -850975.40625, -182060.3203125, -499464.890625, -121084.04296875, 440279.296875, -1279836.5625, -1345773.84375, 412863.328125, 354469.5, -838008.0, -760459.40625, 0.10225000465288758, 0.9818750377744436, 0.25350000709295273, 192.0, 0.0, 0.0, 0.0, 0.0, 0.0, 0.0, 0.0, 0.0, 0.0, 1.6283199314448931E9, 2021-08-07 01:05:31.444
238.0, 880605.28125, 914850.5625, -1300167.65625, -1170056.90625, 101026.48828125, -854646.28125, -181175.71875, -499263.75, -119688.76171875, 463325.90625, -1274589.09375, -1324502.8125, 411332.34375, 355527.375, -836096.15625, -759585.5625, 0.10225000465288758, 0.9818750377744436, 0.25350000709295273, 192.0, 0.0, 0.0, 0.0, 0.0, 0.0, 0.0, 0.0, 0.0, 0.0, 1.6283199314448972E9, 2021-08-07 01:05:31.444
240.0, 879819.375, 914537.90625, -1300081.875, -1169643.84375, 97152.837890625, -852441.0, -181723.96875, -499250.34375, -121226.203125, 439550.8125, -1280058.65625, -1346212.125, 412927.171875, 354028.0078125, -837750.0, -760373.578125, 0.10225000465288758, 0.9818750377744436, 0.25350000709295273, 192.0, 0.0, 0.0, 0.0, 0.0, 0.0, 0.0, 0.0, 0.0, 0.0, 1.6283199314449015E9, 2021-08-07 01:05:31.444
242.0, 880736.15625, 915272.25, -1299949.875, -1169831.0625, 103230.1875, -852841.6875, -181528.69921875, -499008.9375, -119597.02734375, 463887.5625, -1274274.1875, -1324134.84375, 411477.1875, 356041.2890625, -835686.28125, -759169.265625, 0.10000000149011612, 0.9740000367164612, 0.25200000405311584, 192.0, 1.5, 16.0, 15.0, 56.0, 3.5, 112.0, 0.0, 0.0, 0.0, 1.6283199315465815E9, 2021-08-07 01:05:31.546
244.0, 880389.09375, 915188.0625, -1299819.5625, -1169276.90625, 95718.392578125, -853455.375, -182067.83203125, -499222.96875, -121034.6953125, 440094.75, -1279824.75, -1345804.96875, 412998.515625, 354447.515625, -837677.53125, -760271.15625, 0.10000000149011612, 0.9740000367164612, 0.25200000405311584, 192.0, 0.0, 0.0, 0.0, 0.0, 0.0, 0.0, 0.0, 0.0, 0.0, 1.6283199315465863E9, 2021-08-07 01:05:31.546
246.0, 880859.53125, 915792.09375, -1300431.5625, -1170135.28125, 105166.74609375, -851146.03125, -182657.37890625, -500244.375, -119361.52734375, 463842.46875, -1273986.65625, -1324378.40625, 411425.15625, 356577.7265625, -836146.03125, -759409.078125, 0.10000000149011612, 0.9740000367164612, 0.25200000405311584, 192.0, 0.0, 0.0, 0.0, 0.0, 0.0, 0.0, 0.0, 0.0, 0.0, 1.6283199315465903E9, 2021-08-07 01:05:31.546
248.0, 880972.125, 915742.6875, -1299912.84375, -1169341.875, 94050.05859375, -854661.28125, -182154.7265625, -499301.296875, -120843.71484375, 441459.46875, -1279539.375, -1345058.71875, 412913.765625, 354673.8984375, -838253.15625, -760708.875, 0.10000000149011612, 0.9740000367164612, 0.25200000405311584, 192.0, 0.0, 0.0, 0.0, 0.0, 0.0, 0.0, 0.0, 0.0, 0.0, 1.6283199315465944E9, 2021-08-07 01:05:31.546
250.0, 880539.75, 915682.125, -1300949.8125, -1170752.71875, 106286.296875, -849950.25, -183022.6875, -500358.609375, -119367.43359375, 462767.4375, -1274142.1875, -1325777.90625, 411517.40625, 356673.2109375, -836610.5625, -759831.234375, 0.10000000149011612, 0.9740000367164612, 0.25200000405311584, 192.0, 0.0, 0.0, 0.0, 0.0, 0.0, 0.0, 0.0, 0.0, 0.0, 1.6283199315465984E9, 2021-08-07 01:05:31.546
252.0, 880333.21875, 914786.25, -1300534.59375, -1170229.125, 92334.515625, -856655.25, -181853.7890625, -499378.546875, -121087.8046875, 442721.15625, -1279713.65625, -1344115.6875, 412620.328125, 353956.6640625, -838428.5625, -761291.4375, 0.09800000488758087, 0.9720000624656677, 0.24800001084804535, 192.0, 1.5, 8.0, 15.0, 48.0, 3.5, 96.0, 0.0, 0.0, 0.0, 1.628319931546604E9, 2021-08-07 01:05:31.546
254.0, 879941.625, 914881.21875, -1301305.96875, -1171089.0, 106824.3515625, -849310.3125, -182849.42578125, -500472.328125, -120011.15625, 459937.734375, -1275334.125, -1328307.28125, 411265.828125, 355675.4296875, -836910.46875, -760396.640625, 0.09800000488758087, 0.9720000624656677, 0.24800001084804535, 192.0, 0.0, 0.0, 0.0, 0.0, 0.0, 0.0, 0.0, 0.0, 0.0, 1.6283199315466082E9, 2021-08-07 01:05:31.546
0.0, 880708.78125, 914873.15625, -1300200.375, -1169847.1875, 91447.2421875, -857764.03125, -181134.94921875, -499342.59375, -121011.09375, 444578.859375, -1279526.4375, -1342324.5, 412615.5, 353822.5546875, -837966.65625, -761117.625, 0.09800000488758087, 0.9720000624656677, 0.24800001084804535, 192.0, 0.0, 0.0, 0.0, 0.0, 0.0, 0.0, 0.0, 0.0, 0.0, 1.6283199315466123E9, 2021-08-07 01:05:31.546
2.0, 880245.84375, 915189.09375, -1300812.46875, -1170427.03125, 107394.046875, -848081.8125, -182267.91796875, -499581.328125, -119649.05859375, 457610.109375, -1275546.5625, -1330354.875, 411948.703125, 356010.703125, -836389.03125, -759633.84375, 0.09800000488758087, 0.9720000624656677, 0.24800001084804535, 192.0, 0.0, 0.0, 0.0, 0.0, 0.0, 0.0, 0.0, 0.0, 0.0, 1.6283199315466163E9, 2021-08-07 01:05:31.546
4.0, 880707.65625, 914721.28125, -1300036.78125, -1169606.34375, 91334.58984375, -858310.21875, -180847.41796875, -498551.34375, -120698.8828125, 447490.125, -1278707.8125, -1339636.40625, 412501.265625, 354090.234375, -837373.40625, -760436.34375, 0.09800000488758087, 0.9720000624656677, 0.24800001084804535, 192.0, 0.0, 0.0, 0.0, 0.0, 0.0, 0.0, 0.0, 0.0, 0.0, 1.6283199315466206E9, 2021-08-07 01:05:31.546
6.0, 879730.3125, 914800.6875, -1300976.0625, -1170438.84375, 107266.37109375, -847540.59375, -182888.578125, -500349.515625, -120318.5390625, 454747.125, -1276270.21875, -1332876.65625, 411632.203125, 355707.0703125, -836761.875, -759621.515625, 0.10200000554323196, 0.9720000624656677, 0.2460000067949295, 192.0, 1.5, 24.0, 15.0, 48.0, 3.5, 88.0, 0.0, 0.0, 0.0, 1.628319931546625E9, 2021-08-07 01:05:31.546
8.0, 880892.25, 914875.3125, -1299651.65625, -1169255.4375, 91794.322265625, -858508.125, -180790.55859375, -498470.90625, -120773.44921875, 450681.984375, -1278052.3125, -1336769.0625, 412188.515625, 354384.75, -837218.90625, -760126.828125, 0.10200000554323196, 0.9720000624656677, 0.2460000067949295, 192.0, 0.0, 0.0, 0.0, 0.0, 0.0, 0.0, 0.0, 0.0, 0.0, 1.6283199316279764E9, 2021-08-07 01:05:31.627
10.0, 879894.46875, 915125.25, -1300737.375, -1170222.65625, 106940.21484375, -847102.3125, -183117.64453125, -500178.375, -120299.765625, 452274.65625, -1276725.65625, -1335430.6875, 412007.71875, 355876.0546875, -836980.6875, -759724.5, 0.10200000554323196, 0.9720000624656677, 0.2460000067949295, 192.0, 0.0, 0.0, 0.0, 0.0, 0.0, 0.0, 0.0, 0.0, 0.0, 1.6283199316279905E9, 2021-08-07 01:05:31.627
12.0, 881030.625, 914926.21875, -1299960.5625, -1169695.3125, 92695.541015625, -858493.125, -181244.9296875, -499327.03125, -120262.21875, 454074.9375, -1277006.8125, -1333801.5, 412179.375, 354713.0625, -837117.46875, -760425.609375, 0.10200000554323196, 0.9720000624656677, 0.2460000067949295, 192.0, 0.0, 0.0, 0.0, 0.0, 0.0, 0.0, 0.0, 0.0, 0.0, 1.6283199316279953E9, 2021-08-07 01:05:31.627
14.0, 879548.4375, 914622.09375, -1301135.90625, -1170494.15625, 105887.71875, -847267.5, -183379.4296875, -500665.453125, -120464.44921875, 449015.25, -1277296.96875, -1338318.375, 412209.984375, 355328.34375, -837563.25, -760456.21875, 0.10200000554323196, 0.9720000624656677, 0.2460000067949295, 192.0, 0.0, 0.0, 0.0, 0.0, 0.0, 0.0, 0.0, 0.0, 0.0, 1.6283199316279993E9, 2021-08-07 01:05:31.627
16.0, 880812.84375, 914684.34375, -1300441.21875, -1170101.4375, 94046.302734375, -858290.34375, -181324.8515625, -499675.734375, -120474.10546875, 456869.8125, -1276420.5, -1331326.875, 411632.203125, 354657.2578125, -837328.875, -760807.59375, 0.10600000619888306, 0.968000054359436, 0.24800001084804535, 192.0, 1.5, 40.0, 15.0, 32.0, 3.5, 96.0, 0.0, 0.0, 0.0, 1.6283199316280036E9, 2021-08-07 01:05:31.628
18.0, 879532.3125, 914405.90625, -1301139.65625, -1170472.6875, 104264.44921875, -848069.53125, -182868.19921875, -500132.25, -121020.2109375, 445993.453125, -1278264.1875, -1341336.9375, 412337.109375, 354975.375, -837856.21875, -760721.765625, 0.10600000619888306, 0.968000054359436, 0.24800001084804535, 192.0, 0.0, 0.0, 0.0, 0.0, 0.0, 0.0, 0.0, 0.0, 0.0, 1.6283199316280077E9, 2021-08-07 01:05:31.628
20.0, 880640.0625, 914472.9375, -1300074.28125, -1169776.875, 95625.052734375, -857599.96875, -180713.84765625, -498639.328125, -120046.5703125, 459569.203125, -1275756.84375, -1328964.9375, 411973.40625, 355184.578125, -836486.625, -759980.390625, 0.10600000619888306, 0.968000054359436, 0.24800001084804535, 192.0, 0.0, 0.0, 0.0, 0.0, 0.0, 0.0, 0.0, 0.0, 0.0, 1.6283199316280308E9, 2021-08-07 01:05:31.628
22.0, 879053.8125, 913903.78125, -1300992.1875, -1170361.59375, 102402.99609375, -849075.375, -182847.80859375, -500186.953125, -121278.234375, 443395.453125, -1279069.96875, -1343465.53125, 412538.8125, 354758.6484375, -837689.90625, -760183.171875, 0.10600000619888306, 0.968000054359436, 0.24800001084804535, 192.0, 0.0, 0.0, 0.0, 0.0, 0.0, 0.0, 0.0, 0.0, 0.0, 1.6283199316280346E9, 2021-08-07 01:05:31.628
24.0, 880153.59375, 913973.53125, -1300365.09375, -1170191.0625, 97357.7578125, -856943.8125, -181266.38671875, -499501.40625, -120594.26953125, 461253.09375, -1275730.59375, -1327175.90625, 411190.734375, 354975.375, -836635.78125, -760056.5625, 0.10200000554323196, 0.968000054359436, 0.24900000542402267, 192.0, 1.5, 8.0, 15.0, 32.0, 3.5, 104.0, 0.0, 0.0, 0.0, 1.6283199316280384E9, 2021-08-07 01:05:31.628
26.0, 879293.625, 914043.28125, -1300494.9375, -1169927.0625, 100390.8046875, -850069.875, -182520.5859375, -499799.109375, -121548.0703125, 441221.8125, -1279776.46875, -1345348.96875, 412647.703125, 354457.171875, -837854.53125, -760421.859375, 0.10200000554323196, 0.968000054359436, 0.24900000542402267, 192.0, 0.0, 0.0, 0.0, 0.0, 0.0, 0.0, 0.0, 0.0, 0.0, 1.6283199316280432E9, 2021-08-07 01:05:31.628
28.0, 880320.375, 914397.84375, -1300428.375, -1170214.125, 99414.48046875, -855523.40625, -181728.2578125, -499690.734375, -120263.82421875, 463144.03125, -1274932.875, -1325524.21875, 411377.390625, 355641.6328125, -836385.75, -759946.03125, 0.10200000554323196, 0.968000054359436, 0.24900000542402267, 192.0, 0.0, 0.0, 0.0, 0.0, 0.0, 0.0, 0.0, 0.0, 0.0, 1.6283199319263194E9, 2021-08-07 01:05:31.926
30.0, 879183.09375, 913751.4375, -1300818.9375, -1170191.0625, 98185.48828125, -851620.78125, -182904.6796875, -499891.921875, -121805.5546875, 440137.125, -1280106.84375, -1346422.40625, 412615.5, 354157.828125, -838452.1875, -761050.59375, 0.10200000554323196, 0.968000054359436, 0.24900000542402267, 192.0, 0.0, 0.0, 0.0, 0.0, 0.0, 0.0, 0.0, 0.0, 0.0, 1.6283199319263246E9, 2021-08-07 01:05:31.926
32.0, 880079.53125, 914165.53125, -1300622.0625, -1170299.34375, 101355.85546875, -854200.5, -182017.40625, -500011.546875, -120298.16015625, 463736.296875, -1274803.125, -1324877.25, 411204.65625, 355535.953125, -836741.4375, -760207.3125, 0.10200000554323196, 0.968000054359436, 0.24900000542402267, 192.0, 0.0, 0.0, 0.0, 0.0, 0.0, 0.0, 0.0, 0.0, 0.0, 1.6283199319263291E9, 2021-08-07 01:05:31.926
34.0, 879743.15625, 913935.9375, -1300529.25, -1169795.625, 96285.94921875, -852799.3125, -182329.60546875, -499655.90625, -121724.015625, 439728.375, -1280210.4375, -1346606.90625, 412908.421875, 354215.765625, -838575.0, -760893.421875, 0.10000000521540642, 0.968000054359436, 0.2475000061094761, 192.0, 1.5, 8.0, 15.0, 32.0, 3.5, 88.0, 0.0, 0.0, 0.0, 1.6283199319263337E9, 2021-08-07 01:05:31.926
36.0, 880282.875, 914301.28125, -1300925.15625, -1170442.59375, 103440.46875, -852551.4375, -182277.57421875, -500058.234375, -119930.6953125, 463932.609375, -1274467.3125, -1324646.0625, 411613.96875, 356151.796875, -836559.5625, -760022.25, 0.10000000521540642, 0.968000054359436, 0.2475000061094761, 192.0, 0.0, 0.0, 0.0, 0.0, 0.0, 0.0, 0.0, 0.0, 0.0, 1.628319931926338E9, 2021-08-07 01:05:31.926
38.0, 880134.75, 914166.09375, -1300564.125, -1169626.6875, 94704.515625, -853919.4375, -181796.390625, -499485.84375, -121485.84375, 440347.40625, -1280135.8125, -1346258.25, 413239.40625, 354283.359375, -838341.65625, -761085.46875, 0.10000000521540642, 0.968000054359436, 0.2475000061094761, 192.0, 0.0, 0.0, 0.0, 0.0, 0.0, 0.0, 0.0, 0.0, 0.0, 1.6283199319263422E9, 2021-08-07 01:05:31.926
40.0, 880157.34375, 914344.78125, -1301356.40625, -1170619.6875, 105156.55078125, -850989.84375, -182263.08984375, -500004.5625, -119993.4609375, 463521.140625, -1274445.84375, -1325347.21875, 411685.875, 356285.3671875, -836467.875, -760016.859375, 0.10000000521540642, 0.968000054359436, 0.2475000061094761, 192.0, 0.0, 0.0, 0.0, 0.0, 0.0, 0.0, 0.0, 0.0, 0.0, 1.6283199319263468E9, 2021-08-07 01:05:31.926
42.0, 880270.5, 914111.4375, -1300686.9375, -1169556.375, 93118.79296875, -855566.8125, -181271.7421875, -499176.328125, -121317.3984375, 441815.671875, -1280001.1875, -1345347.375, 413248.5, 354334.3359375, -838188.28125, -760901.4375, 0.10000000521540642, 0.968000054359436, 0.2475000061094761, 192.0, 0.0, 0.0, 0.0, 0.0, 0.0, 0.0, 0.0, 0.0, 0.0, 1.6283199319263508E9, 2021-08-07 01:05:31.926
44.0, 879564.0, 913933.875, -1301663.25, -1170664.125, 106299.17578125, -850080.09375, -182277.57421875, -499877.953125, -120025.11328125, 461812.078125, -1274974.21875, -1326886.78125, 411727.171875, 356431.8046875, -836422.78125, -759646.171875, 0.10000000335276127, 0.9710000455379486, 0.24775000847876072, 192.0, 1.5, 16.0, 15.0, 56.0, 3.5, 96.0, 0.0, 0.0, 0.0, 1.6283199319263551E9, 2021-08-07 01:05:31.926
46.0, 880088.0625, 913755.75, -1300796.34375, -1169536.03125, 91863.521484375, -857227.59375, -180946.6640625, -498451.59375, -121604.390625, 443137.453125, -1280286.09375, -1343914.5, 412633.734375, 354192.1640625, -838070.25, -760551.703125, 0.10000000335276127, 0.9710000455379486, 0.24775000847876072, 192.0, 0.0, 0.0, 0.0, 0.0, 0.0, 0.0, 0.0, 0.0, 0.0, 1.6283199319263723E9, 2021-08-07 01:05:31.926
48.0, 879623.53125, 913930.59375, -1301757.1875, -1170576.75, 106948.265625, -849163.3125, -182406.31640625, -500021.71875, -120239.68359375, 459300.421875, -1275749.34375, -1328945.0625, 411641.34375, 356476.875, -836413.125, -759313.59375, 0.10000000335276127, 0.9710000455379486, 0.24775000847876072, 192.0, 0.0, 0.0, 0.0, 0.0, 0.0, 0.0, 0.0, 0.0, 0.0, 1.628319931926376E9, 2021-08-07 01:05:31.926
50.0, 880511.34375, 913902.75, -1300787.8125, -1169506.03125, 91248.22265625, -858136.40625, -180862.44140625, -498323.90625, -121206.3515625, 445478.484375, -1279624.59375, -1341651.75, 412744.78125, 354648.140625, -837659.8125, -760384.875, 0.10000000335276127, 0.9710000455379486, 0.24775000847876072, 192.0, 0.0, 0.0, 0.0, 0.0, 0.0, 0.0, 0.0, 0.0, 0.0, 1.6283199319263804E9, 2021-08-07 01:05:31.926
52.0, 879589.21875, 913980.46875, -1302093.46875, -1170878.25, 107298.0234375, -848214.375, -183187.921875, -500740.546875, -120152.25, 456958.3125, -1275947.8125, -1331061.375, 411977.671875, 356517.6328125, -836753.25, -759785.109375, 0.10000000335276127, 0.9710000455379486, 0.24775000847876072, 192.0, 0.0, 0.0, 0.0, 0.0, 0.0, 0.0, 0.0, 0.0, 0.0, 1.6283199319263844E9, 2021-08-07 01:05:31.926
54.0, 880761.375, 914041.125, -1300996.5, -1169886.84375, 91370.53125, -858662.0625, -181134.94921875, -499007.34375, -121092.6328125, 448443.9375, -1278834.46875, -1338949.6875, 412339.78125, 354492.046875, -838067.53125, -761039.34375, 0.1000000024214387, 0.970500037074089, 0.24887500423938036, 192.0, 1.5, 16.0, 15.0, 40.0, 3.5, 104.0, 0.0, 0.0, 0.0, 1.6283199319263957E9, 2021-08-07 01:05:31.926
56.0, 880006.03125, 914225.625, -1301954.53125, -1170719.4375, 107405.84765625, -847468.125, -183012.50390625, -500524.921875, -120109.32421875, 454197.28125, -1276284.1875, -1333622.90625, 412166.53125, 356438.7890625, -837256.96875, -760228.21875, 0.1000000024214387, 0.970500037074089, 0.24887500423938036, 192.0, 0.0, 0.0, 0.0, 0.0, 0.0, 0.0, 0.0, 0.0, 0.0, 1.6283199319263997E9, 2021-08-07 01:05:31.926
58.0, 881296.125, 914308.78125, -1300753.96875, -1169607.9375, 92278.728515625, -858640.125, -180724.04296875, -498614.671875, -120421.53515625, 451826.71875, -1277628.5625, -1335822.84375, 412429.921875, 355100.90625, -837638.90625, -760695.46875, 0.1000000024214387, 0.970500037074089, 0.24887500423938036, 192.0, 0.0, 0.0, 0.0, 0.0, 0.0, 0.0, 0.0, 0.0, 0.0, 1.6283199319264035E9, 2021-08-07 01:05:31.926
60.0, 880076.8125, 914398.96875, -1301625.1875, -1170315.46875, 106934.859375, -847306.125, -182689.55859375, -500666.53125, -119981.66015625, 451231.265625, -1276808.8125, -1336119.46875, 412466.90625, 356446.2890625, -837200.625, -759851.625, 0.1000000024214387, 0.970500037074089, 0.24887500423938036, 192.0, 0.0, 0.0, 0.0, 0.0, 0.0, 0.0, 0.0, 0.0, 0.0, 1.6283199319264076E9, 2021-08-07 01:05:31.926
62.0, 881224.3125, 914315.8125, -1300594.125, -1169580.0, 93343.564453125, -858703.40625, -180577.0546875, -498401.671875, -120028.86328125, 454887.65625, -1276961.71875, -1332741.46875, 412289.34375, 355480.7109375, -836978.53125, -760337.671875, 0.1000000024214387, 0.970500037074089, 0.24887500423938036, 192.0, 0.0, 0.0, 0.0, 0.0, 0.0, 0.0, 0.0, 0.0, 0.0, 1.6283199319264123E9, 2021-08-07 01:05:31.926
64.0, 879840.84375, 914107.125, -1301687.90625, -1170429.1875, 105607.69921875, -847817.90625, -182664.890625, -499773.890625, -120334.640625, 447925.734375, -1277860.78125, -1338844.03125, 412557.5625, 356035.3828125, -837304.6875, -759995.390625, 0.09900000365450978, 0.9722500368952751, 0.24943750211969018, 192.0, 1.5, 8.0, 15.0, 56.0, 3.5, 104.0, 0.0, 0.0, 0.0, 1.628319931926417E9, 2021-08-07 01:05:31.926
66.0, 881140.59375, 914269.6875, -1300977.1875, -1170116.4375, 94554.310546875, -858420.1875, -180771.78515625, -499038.984375, -120172.62890625, 457643.390625, -1276711.21875, -1330363.40625, 411834.984375, 355253.25, -836970.0, -760463.203125, 0.09900000365450978, 0.9722500368952751, 0.24943750211969018, 192.0, 0.0, 0.0, 0.0, 0.0, 0.0, 0.0, 0.0, 0.0, 0.0, 1.6283199319264398E9, 2021-08-07 01:05:31.926
68.0, 879819.84375, 914101.78125, -1301853.1875, -1170637.875, 103863.7265625, -848520.65625, -182960.4609375, -500263.125, -120622.171875, 445342.734375, -1278692.8125, -1341680.25, 412585.453125, 355634.1328125, -837788.625, -760485.703125, 0.09900000365450978, 0.9722500368952751, 0.24943750211969018, 192.0, 0.0, 0.0, 0.0, 0.0, 0.0, 0.0, 0.0, 0.0, 0.0, 1.628319931926444E9, 2021-08-07 01:05:31.926
70.0, 881099.8125, 914428.96875, -1301104.875, -1170190.5, 96355.6875, -857744.25, -181286.2265625, -499008.9375, -120107.71875, 460361.53125, -1276042.3125, -1328127.0, 411411.75, 355562.25, -837178.6875, -760477.125, 0.09900000365450978, 0.9722500368952751, 0.24943750211969018, 192.0, 0.0, 0.0, 0.0, 0.0, 0.0, 0.0, 0.0, 0.0, 0.0, 1.628319931926448E9, 2021-08-07 01:05:31.926
72.0, 879960.9375, 914212.78125, -1301576.34375, -1170226.96875, 102105.26953125, -849470.71875, -183110.671875, -500019.609375, -120761.109375, 443201.296875, -1279292.53125, -1343710.125, 412770.5625, 355525.21875, -838196.25, -760272.75, 0.09900000365450978, 0.9722500368952751, 0.24943750211969018, 192.0, 0.0, 0.0, 0.0, 0.0, 0.0, 0.0, 0.0, 0.0, 0.0, 1.6283199319264524E9, 2021-08-07 01:05:31.926
74.0, 881187.84375, 914426.25, -1301007.1875, -1170111.65625, 98364.65625, -856524.9375, -181489.0078125, -498947.765625, -119733.8203125, 462563.0625, -1275378.1875, -1326067.59375, 411539.953125, 356073.46875, -836925.46875, -759903.65625, 0.10400000214576721, 0.9740000367164612, 0.25600001215934753, 192.0, 1.5, 32.0, 15.0, 56.0, 4.0, 0.0, 0.0, 0.0, 0.0, 1.6283199319264565E9, 2021-08-07 01:05:31.926
76.0, 879948.65625, 914061.46875, -1301675.625, -1170396.46875, 100049.625, -850785.0, -182833.32421875, -500138.671875, -120846.9375, 441541.546875, -1279882.125, -1345266.375, 412880.53125, 355175.4609375, -838371.75, -760448.71875, 0.10400000214576721, 0.9740000367164612, 0.25600001215934753, 192.0, 0.0, 0.0, 0.0, 0.0, 0.0, 0.0, 0.0, 0.0, 0.0, 1.6283199319264605E9, 2021-08-07 01:05:31.926
78.0, 880885.21875, 914293.21875, -1301558.625, -1170843.375, 100214.84765625, -855530.34375, -181774.39453125, -500061.984375, -119595.94921875, 463819.96875, -1275096.0, -1325091.28125, 411383.296875, 355989.7734375, -836962.96875, -760307.0625, 0.10400000214576721, 0.9740000367164612, 0.25600001215934753, 192.0, 0.0, 0.0, 0.0, 0.0, 0.0, 0.0, 0.0, 0.0, 0.0, 1.6283199319264653E9, 2021-08-07 01:05:31.926
80.0, 880209.375, 914199.9375, -1301521.6875, -1170446.34375, 97900.1015625, -852102.46875, -182325.31640625, -499534.640625, -121053.46875, 440132.8125, -1280443.21875, -1346502.84375, 412691.15625, 354499.546875, -838730.625, -761358.515625, 0.10400000214576721, 0.9740000367164612, 0.25600001215934753, 192.0, 0.0, 0.0, 0.0, 0.0, 0.0, 0.0, 0.0, 0.0, 0.0, 1.628319931926469E9, 2021-08-07 01:05:31.926
82.0, 880954.5, 914663.90625, -1301386.96875, -1170675.9375, 102424.453125, -853662.46875, -181808.73046875, -499627.453125, -119266.04296875, 464347.265625, -1274622.28125, -1324440.09375, 411406.921875, 356368.5234375, -836571.9375, -760170.28125, 0.10400000214576721, 0.9740000367164612, 0.25600001215934753, 192.0, 0.0, 0.0, 0.0, 0.0, 0.0, 0.0, 0.0, 0.0, 0.0, 1.6283199319264731E9, 2021-08-07 01:05:31.926
84.0, 880379.4375, 914279.8125, -1301089.3125, -1169998.40625, 96074.05078125, -853302.0, -182102.6953125, -499287.328125, -121058.8359375, 440221.875, -1280321.4375, -1346363.90625, 412731.9375, 354531.7265625, -838535.8125, -760954.546875, 0.10200000554323196, 0.9760000705718994, 0.25200000405311584, 192.0, 1.5, 24.0, 15.0, 64.0, 3.5, 112.0, 0.0, 0.0, 0.0, 1.6283199319264777E9, 2021-08-07 01:05:31.926
86.0, 880805.34375, 914691.28125, -1301109.65625, -1170343.40625, 104267.1328125, -852210.28125, -182037.78515625, -499544.296875, -119574.4921875, 464143.453125, -1274635.21875, -1324577.90625, 411126.890625, 356418.9375, -836490.375, -759643.5, 0.10200000554323196, 0.9760000705718994, 0.25200000405311584, 192.0, 0.0, 0.0, 0.0, 0.0, 0.0, 0.0, 0.0, 0.0, 0.0, 1.6283199319264815E9, 2021-08-07 01:05:31.926
88.0, 880612.21875, 914423.0625, -1300234.21875, -1169142.84375, 94537.681640625, -854610.84375, -181321.640625, -498636.09375, -121095.84375, 440863.453125, -1280256.5625, -1345551.75, 412814.015625, 354615.9609375, -837964.03125, -760155.28125, 0.10200000554323196, 0.9760000705718994, 0.25200000405311584, 192.0, 0.0, 0.0, 0.0, 0.0, 0.0, 0.0, 0.0, 0.0, 0.0, 1.6283199319265003E9, 2021-08-07 01:05:31.926
90.0, 880691.0625, 914827.03125, -1300742.71875, -1169966.25, 105967.11328125, -850651.40625, -181998.09375, -499552.359375, -119472.57421875, 463234.171875, -1274585.25, -1325052.09375, 411531.890625, 356890.4765625, -835881.5625, -758847.9375, 0.10200000554323196, 0.9760000705718994, 0.25200000405311584, 192.0, 0.0, 0.0, 0.0, 0.0, 0.0, 0.0, 0.0, 0.0, 0.0, 1.628319931926523E9, 2021-08-07 01:05:31.926
92.0, 880873.96875, 914557.6875, -1300123.125, -1169218.96875, 93252.369140625, -855831.84375, -181389.76171875, -499121.0625, -121044.3515625, 442143.9375, -1279922.34375, -1344206.90625, 412857.46875, 354597.7265625, -837744.5625, -760247.015625, 0.10200000554323196, 0.9760000705718994, 0.25200000405311584, 192.0, 0.0, 0.0, 0.0, 0.0, 0.0, 0.0, 0.0, 0.0, 0.0, 1.6283199319265308E9, 2021-08-07 01:05:31.926
94.0, 880661.53125, 914927.8125, -1301088.1875, -1170269.34375, 107203.6171875, -849198.1875, -182624.12109375, -499962.75, -119557.3359375, 461551.359375, -1274623.40625, -1326614.8125, 411604.875, 356813.765625, -836281.21875, -759341.484375, 0.10400000214576721, 0.9780000448226929, 0.2540000081062317, 192.0, 1.5, 32.0, 15.0, 72.0, 3.5, 120.0, 0.0, 0.0, 0.0, 1.6283199319265351E9, 2021-08-07 01:05:31.926
96.0, 881222.15625, 914822.15625, -1300432.125, -1169466.84375, 92318.958984375, -856992.09375, -181440.7265625, -498962.8125, -120908.0859375, 444360.515625, -1279374.65625, -1342457.53125, 412646.109375, 354597.7265625, -838193.0625, -760739.4375, 0.10400000214576721, 0.9780000448226929, 0.2540000081062317, 192.0, 0.0, 0.0, 0.0, 0.0, 0.0, 0.0, 0.0, 0.0, 0.0, 1.6283199319265392E9, 2021-08-07 01:05:31.926
98.0, 880538.71875, 914952.5625, -1301596.21875, -1170717.28125, 107829.10546875, -848349.0, -183200.25, -500778.65625, -119588.44921875, 459231.234375, -1275069.65625, -1328927.90625, 411669.75, 356738.109375, -836951.25, -759794.25, 0.10400000214576721, 0.9780000448226929, 0.2540000081062317, 192.0, 0.0, 0.0, 0.0, 0.0, 0.0, 0.0, 0.0, 0.0, 0.0, 1.6283199319265435E9, 2021-08-07 01:05:31.926
100.0, 881423.34375, 914937.0, -1300552.875, -1169658.375, 91931.6484375, -857973.28125, -181297.5, -498804.5625, -120591.05859375, 446793.28125, -1278842.53125, -1340356.78125, 412450.265625, 354570.890625, -838288.03125, -760925.0625, 0.10400000214576721, 0.9780000448226929, 0.2540000081062317, 192.0, 0.0, 0.0, 0.0, 0.0, 0.0, 0.0, 0.0, 0.0, 0.0, 1.6283199319265475E9, 2021-08-07 01:05:31.926
102.0, 880282.875, 914808.1875, -1301632.6875, -1170703.875, 107912.7890625, -847842.09375, -183014.109375, -500126.34375, -119734.8984375, 456423.515625, -1275748.3125, -1331564.53125, 411793.6875, 356506.921875, -837163.59375, -759838.21875, 0.10400000214576721, 0.9780000448226929, 0.2540000081062317, 192.0, 0.0, 0.0, 0.0, 0.0, 0.0, 0.0, 0.0, 0.0, 0.0, 1.6283199319265516E9, 2021-08-07 01:05:31.926
104.0, 881190.46875, 914662.3125, -1300576.96875, -1169769.9375, 91830.263671875, -858830.53125, -180894.6328125, -498952.078125, -120667.23046875, 449650.921875, -1278518.53125, -1337906.34375, 412087.640625, 354568.21875, -837929.71875, -760875.703125, 0.10200000554323196, 0.9740000367164612, 0.2540000081062317, 192.0, 1.5, 24.0, 15.0, 56.0, 3.5, 120.0, 0.0, 0.0, 0.0, 1.6283199324018438E9, 2021-08-07 01:05:32.401
106.0, 880333.78125, 914980.96875, -1301218.03125, -1170339.09375, 107261.015625, -847486.40625, -182538.28125, -499733.671875, -120006.8671875, 453372.75, -1276653.84375, -1334351.90625, 411995.90625, 356290.734375, -836864.34375, -759634.359375, 0.10200000554323196, 0.9740000367164612, 0.2540000081062317, 192.0, 0.0, 0.0, 0.0, 0.0, 0.0, 0.0, 0.0, 0.0, 0.0, 1.628319932401948E9, 2021-08-07 01:05:32.401
110.0, 880329.46875, 914842.59375, -1301476.03125, -1170385.21875, 106505.6953125, -847474.03125, -182993.73046875, -500101.125, -120193.01953125, 450269.4375, -1277373.1875, -1337170.875, 412246.96875, 356083.125, -837360.0, -759990.046875, 0.10200000554323196, 0.9740000367164612, 0.2540000081062317, 192.0, 0.0, 0.0, 0.0, 0.0, 0.0, 0.0, 0.0, 0.0, 0.0, 1.6283199324020092E9, 2021-08-07 01:05:32.402
112.0, 881524.6875, 914852.71875, -1300749.75, -1169859.0, 93530.244140625, -858595.59375, -181264.2421875, -498814.21875, -119981.66015625, 456123.609375, -1276898.4375, -1332196.5, 412042.078125, 355326.75, -837472.59375, -760240.03125, 0.0990000031888485, 0.9780000448226929, 0.2540000081062317, 192.0, 1.5, 0.0, 15.0, 88.0, 3.5, 120.0, 0.0, 0.0, 0.0, 1.6283199324020135E9, 2021-08-07 01:05:32.402
114.0, 880329.0, 914824.3125, -1301711.53125, -1170510.1875, 104900.671875, -847926.84375, -183329.00390625, -500479.3125, -120337.8515625, 447516.421875, -1278140.25, -1340052.09375, 412437.421875, 355854.609375, -838128.65625, -760135.40625, 0.0990000031888485, 0.9780000448226929, 0.2540000081062317, 192.0, 0.0, 0.0, 0.0, 0.0, 0.0, 0.0, 0.0, 0.0, 0.0, 1.628319932402018E9, 2021-08-07 01:05:32.402
116.0, 881415.84375, 914741.71875, -1300932.65625, -1170088.59375, 95012.431640625, -858199.6875, -181409.07421875, -499549.125, -119843.25, 459038.109375, -1276245.5625, -1329711.09375, 411774.375, 355539.1640625, -837503.25, -760263.609375, 0.0990000031888485, 0.9780000448226929, 0.2540000081062317, 192.0, 0.0, 0.0, 0.0, 0.0, 0.0, 0.0, 0.0, 0.0, 0.0, 1.628319932402022E9, 2021-08-07 01:05:32.402
118.0, 880078.96875, 914454.1875, -1301529.65625, -1170319.78125, 103355.71875, -848688.0, -183091.8984375, -500152.078125, -120574.4296875, 444831.515625, -1278799.59375, -1342418.34375, 412592.4375, 355504.8515625, -838350.75, -760413.84375, 0.0990000031888485, 0.9780000448226929, 0.2540000081062317, 192.0, 0.0, 0.0, 0.0, 0.0, 0.0, 0.0, 0.0, 0.0, 0.0, 1.6283199324020264E9, 2021-08-07 01:05:32.402
120.0, 881114.8125, 914487.46875, -1300989.0, -1170256.5, 96987.615234375, -857289.28125, -181455.2109375, -499588.828125, -119927.47265625, 461250.9375, -1275669.9375, -1327450.03125, 411482.015625, 355590.140625, -837245.71875, -760314.609375, 0.0990000031888485, 0.9780000448226929, 0.2540000081062317, 192.0, 0.0, 0.0, 0.0, 0.0, 0.0, 0.0, 0.0, 0.0, 0.0, 1.6283199324020305E9, 2021-08-07 01:05:32.402
122.0, 879970.59375, 914414.4375, -1301456.71875, -1170340.6875, 101520.01171875, -849705.09375, -182776.46484375, -499783.03125, -120894.6796875, 442737.28125, -1279364.4375, -1344404.25, 412730.859375, 355333.171875, -838472.0625, -760628.390625, 0.09950000233948231, 0.976000040769577, 0.25300000607967377, 192.0, 1.5, 16.0, 15.0, 56.0, 3.5, 112.0, 0.0, 0.0, 0.0, 1.6283199324020348E9, 2021-08-07 01:05:32.402
124.0, 880683.5625, 914332.96875, -1301325.84375, -1170675.46875, 98960.109375, -856378.96875, -181582.34765625, -499857.609375, -119857.20703125, 463097.90625, -1275280.5, -1325961.375, 411329.109375, 355794.515625, -837083.15625, -760274.34375, 0.09950000233948231, 0.976000040769577, 0.25300000607967377, 192.0, 0.0, 0.0, 0.0, 0.0, 0.0, 0.0, 0.0, 0.0, 0.0, 1.628319932402044E9, 2021-08-07 01:05:32.402
126.0, 879680.90625, 914123.15625, -1301150.4375, -1170049.96875, 99590.96484375, -851117.53125, -182278.65234375, -499784.109375, -121377.48046875, 440850.609375, -1280158.96875, -1345917.0, 412513.03125, 354639.0234375, -838613.625, -760775.90625, 0.09950000233948231, 0.976000040769577, 0.25300000607967377, 192.0, 0.0, 0.0, 0.0, 0.0, 0.0, 0.0, 0.0, 0.0, 0.0, 1.6283199324020498E9, 2021-08-07 01:05:32.402
128.0, 880621.3125, 914486.90625, -1300831.21875, -1170120.75, 101044.72265625, -854815.78125, -181269.0703125, -499064.71875, -119842.18359375, 464073.703125, -1274875.5, -1324706.15625, 411257.765625, 356226.890625, -836510.8125, -759467.015625, 0.09950000233948231, 0.976000040769577, 0.25300000607967377, 192.0, 0.0, 0.0, 0.0, 0.0, 0.0, 0.0, 0.0, 0.0, 0.0, 1.628319932402054E9, 2021-08-07 01:05:32.402
130.0, 879502.3125, 913753.59375, -1300756.125, -1169626.6875, 97430.712890625, -852557.34375, -181892.94140625, -499072.21875, -121375.86328125, 440201.484375, -1280396.0625, -1346355.84375, 412690.59375, 354650.296875, -838323.9375, -760197.09375, 0.09950000233948231, 0.976000040769577, 0.25300000607967377, 192.0, 0.0, 0.0, 0.0, 0.0, 0.0, 0.0, 0.0, 0.0, 0.0, 1.6283199324020581E9, 2021-08-07 01:05:32.402
132.0, 880020.0, 913858.21875, -1300882.21875, -1170221.625, 102907.25390625, -853616.34375, -181595.2265625, -499680.5625, -120166.1953125, 464229.796875, -1274929.6875, -1324373.53125, 411184.265625, 356245.6640625, -836417.4375, -759229.921875, 0.10075000394135714, 0.9760000556707382, 0.2515000030398369, 192.0, 1.5, 24.0, 15.0, 64.0, 3.5, 104.0, 0.0, 0.0, 0.0, 1.6283199324020624E9, 2021-08-07 01:05:32.402
134.0, 879719.53125, 913868.90625, -1300650.46875, -1169763.46875, 95536.53515625, -854169.9375, -181698.22265625, -499422.0, -121653.75, 440048.625, -1280679.28125, -1346341.875, 412715.8125, 354289.8046875, -838378.6875, -760658.4375, 0.10075000394135714, 0.9760000556707382, 0.2515000030398369, 192.0, 0.0, 0.0, 0.0, 0.0, 0.0, 0.0, 0.0, 0.0, 0.0, 1.6283199324020667E9, 2021-08-07 01:05:32.402
136.0, 879963.09375, 914213.34375, -1301405.8125, -1170881.4375, 104767.62890625, -852228.5625, -182260.40625, -500765.765625, -120077.14453125, 463652.0625, -1274935.59375, -1324921.78125, 411200.90625, 356000.5078125, -836650.21875, -760166.53125, 0.10075000394135714, 0.9760000556707382, 0.2515000030398369, 192.0, 0.0, 0.0, 0.0, 0.0, 0.0, 0.0, 0.0, 0.0, 0.0, 1.6283199324020708E9, 2021-08-07 01:05:32.402
138.0, 879909.46875, 913981.59375, -1300924.03125, -1170008.0625, 94022.162109375, -855528.1875, -181913.33203125, -499320.09375, -121631.21484375, 440870.4375, -1280464.125, -1345776.46875, 412614.421875, 353823.09375, -838826.0625, -761442.1875, 0.10075000394135714, 0.9760000556707382, 0.2515000030398369, 192.0, 0.0, 0.0, 0.0, 0.0, 0.0, 0.0, 0.0, 0.0, 0.0, 1.628319932402075E9, 2021-08-07 01:05:32.402
140.0, 879987.75, 914273.4375, -1301344.125, -1170640.03125, 106279.86328125, -850538.25, -182481.9609375, -500252.390625, -119940.890625, 462632.296875, -1274836.875, -1326067.59375, 411306.609375, 356216.6953125, -837025.21875, -759934.265625, 0.10075000394135714, 0.9760000556707382, 0.2515000030398369, 192.0, 0.0, 0.0, 0.0, 0.0, 0.0, 0.0, 0.0, 0.0, 0.0, 1.628319932402079E9, 2021-08-07 01:05:32.402
142.0, 880127.25, 913847.4375, -1300585.59375, -1169689.5, 92610.24609375, -856641.28125, -181221.31640625, -498983.71875, -121424.14453125, 442885.3125, -1279983.46875, -1344167.15625, 412485.703125, 354171.234375, -838562.71875, -760866.609375, 0.10037500271573663, 0.9760000631213188, 0.2537500075995922, 192.0, 1.5, 16.0, 15.0, 64.0, 4.0, 0.0, 0.0, 0.0, 0.0, 1.6283199324020832E9, 2021-08-07 01:05:32.402
144.0, 879641.25, 914103.84375, -1301517.9375, -1170706.59375, 107036.23828125, -849492.1875, -182624.12109375, -500131.6875, -120113.625, 460910.296875, -1275290.15625, -1327831.40625, 411250.78125, 356229.5625, -837098.15625, -759783.515625, 0.10037500271573663, 0.9760000631213188, 0.2537500075995922, 192.0, 0.0, 0.0, 0.0, 0.0, 0.0, 0.0, 0.0, 0.0, 0.0, 1.6283199324020877E9, 2021-08-07 01:05:32.402
146.0, 880068.75, 913836.1875, -1300513.6875, -1169634.1875, 91612.46484375, -858063.9375, -181024.453125, -498821.203125, -121489.59375, 444987.09375, -1279867.59375, -1342292.8125, 412264.125, 354098.296875, -838450.03125, -760723.875, 0.10037500271573663, 0.9760000631213188, 0.2537500075995922, 192.0, 0.0, 0.0, 0.0, 0.0, 0.0, 0.0, 0.0, 0.0, 0.0, 1.6283199324020915E9, 2021-08-07 01:05:32.402
148.0, 879325.3125, 913929.0, -1301541.0, -1170704.90625, 107190.73828125, -848932.125, -182701.8984375, -500464.828125, -120359.84765625, 458248.453125, -1276089.46875, -1330196.0625, 411357.5625, 356255.3203125, -837107.8125, -759729.328125, 0.10037500271573663, 0.9760000631213188, 0.2537500075995922, 192.0, 0.0, 0.0, 0.0, 0.0, 0.0, 0.0, 0.0, 0.0, 0.0, 1.628319932402096E9, 2021-08-07 01:05:32.402
150.0, 880222.21875, 913979.4375, -1300508.34375, -1169703.375, 91132.88671875, -858973.21875, -180915.01171875, -498598.03125, -121293.2578125, 447567.9375, -1279540.40625, -1340161.59375, 412149.890625, 354373.4765625, -838223.15625, -760693.875, 0.10037500271573663, 0.9760000631213188, 0.2537500075995922, 192.0, 0.0, 0.0, 0.0, 0.0, 0.0, 0.0, 0.0, 0.0, 0.0, 1.6283199324021008E9, 2021-08-07 01:05:32.402
152.0, 879244.78125, 914008.96875, -1301694.9375, -1170897.0, 107151.03515625, -848295.375, -183134.8125, -500754.515625, -120536.33203125, 455422.5, -1276733.71875, -1332917.4375, 411536.71875, 356101.8984375, -837378.75, -759930.515625, 0.1011875041294843, 0.9730000458657742, 0.25487500987946987, 192.0, 1.5, 24.0, 15.0, 40.0, 4.0, 0.0, 0.0, 0.0, 0.0, 1.6283199324021049E9, 2021-08-07 01:05:32.402
154.0, 880262.4375, 913854.46875, -1300796.90625, -1170100.875, 91555.06640625, -859474.21875, -181153.1953125, -498990.703125, -121292.1796875, 450460.40625, -1278953.53125, -1337484.75, 411761.484375, 354200.203125, -838239.75, -760972.78125, 0.1011875041294843, 0.9730000458657742, 0.25487500987946987, 192.0, 0.0, 0.0, 0.0, 0.0, 0.0, 0.0, 0.0, 0.0, 0.0, 1.6283199324021091E9, 2021-08-07 01:05:32.402
156.0, 879285.5625, 914138.71875, -1301619.84375, -1170654.46875, 106993.86328125, -847859.71875, -182939.54296875, -500298.5625, -120952.078125, 452228.53125, -1277493.84375, -1335862.5, 411571.078125, 355573.5, -837839.53125, -760062.984375, 0.1011875041294843, 0.9730000458657742, 0.25487500987946987, 192.0, 0.0, 0.0, 0.0, 0.0, 0.0, 0.0, 0.0, 0.0, 0.0, 1.6283199324021132E9, 2021-08-07 01:05:32.402
158.0, 880694.25, 914334.0, -1300522.78125, -1169790.84375, 92787.80859375, -859063.3125, -180990.65625, -498629.15625, -120740.71875, 454034.71875, -1277630.15625, -1334449.03125, 411981.421875, 354841.265625, -837780.0, -760193.90625, 0.1011875041294843, 0.9730000458657742, 0.25487500987946987, 192.0, 0.0, 0.0, 0.0, 0.0, 0.0, 0.0, 0.0, 0.0, 0.0, 1.6283199324021187E9, 2021-08-07 01:05:32.402
160.0, 879150.9375, 913970.34375, -1301833.875, -1170849.28125, 105945.1171875, -847992.75, -183505.48828125, -500880.5625, -120904.3359375, 449254.5, -1278011.53125, -1338572.625, 411853.21875, 355377.1640625, -838313.25, -760287.75, 0.1011875041294843, 0.9730000458657742, 0.25487500987946987, 192.0, 0.0, 0.0, 0.0, 0.0, 0.0, 0.0, 0.0, 0.0, 0.0, 1.628319932402123E9, 2021-08-07 01:05:32.402
162.0, 880583.25, 914149.5, -1300892.4375, -1170234.46875, 93826.8984375, -858937.78125, -181323.24609375, -499361.390625, -120686.00390625, 456744.84375, -1277242.3125, -1331990.4375, 411485.765625, 354743.625, -838080.9375, -760678.828125, 0.1080000028014183, 0.9740000367164612, 0.2540000081062317, 192.0, 1.5, 48.0, 15.0, 56.0, 3.5, 120.0, 0.0, 0.0, 0.0, 1.6283199324021275E9, 2021-08-07 01:05:32.402
164.0, 879325.3125, 914080.3125, -1301876.8125, -1170934.5, 104340.08203125, -848536.21875, -183291.984375, -500785.078125, -120808.8515625, 446444.0625, -1278701.4375, -1341369.65625, 412294.734375, 355280.6015625, -838552.5, -760524.328125, 0.1080000028014183, 0.9740000367164612, 0.2540000081062317, 192.0, 0.0, 0.0, 0.0, 0.0, 0.0, 0.0, 0.0, 0.0, 0.0, 1.6283199324021316E9, 2021-08-07 01:05:32.402
166.0, 880990.96875, 914645.71875, -1300723.96875, -1170256.5, 95505.421875, -858132.09375, -180867.80859375, -499180.59375, -120294.9375, 459631.40625, -1276482.1875, -1329565.21875, 411471.796875, 354943.1953125, -837782.71875, -760663.265625, 0.1080000028014183, 0.9740000367164612, 0.2540000081062317, 192.0, 0.0, 0.0, 0.0, 0.0, 0.0, 0.0, 0.0, 0.0, 0.0, 1.628319932402136E9, 2021-08-07 01:05:32.402
168.0, 879651.9375, 914273.4375, -1301259.84375, -1170421.125, 102731.8359375, -849160.125, -182381.6484375, -499593.65625, -120870.5390625, 444200.671875, -1279207.3125, -1343574.375, 412688.484375, 355024.1953125, -838399.59375, -760414.921875, 0.1080000028014183, 0.9740000367164612, 0.2540000081062317, 192.0, 0.0, 0.0, 0.0, 0.0, 0.0, 0.0, 0.0, 0.0, 0.0, 1.6283199324021401E9, 2021-08-07 01:05:32.402
170.0, 880653.0, 914427.9375, -1300717.03125, -1170235.03125, 97387.259765625, -857236.21875, -180778.7578125, -499169.34375, -120066.94921875, 462089.953125, -1275733.78125, -1327343.25, 411486.28125, 355397.5546875, -837051.5625, -759948.1875, 0.1080000028014183, 0.9740000367164612, 0.2540000081062317, 192.0, 0.0, 0.0, 0.0, 0.0, 0.0, 0.0, 0.0, 0.0, 0.0, 1.6283199324021444E9, 2021-08-07 01:05:32.402
172.0, 879215.34375, 913863.0, -1301254.5, -1170200.71875, 100630.59375, -850518.9375, -182262.0234375, -499634.953125, -121466.53125, 441938.484375, -1280092.40625, -1345482.0, 412329.046875, 354503.8359375, -838616.8125, -760273.265625, 0.10400000214576721, 0.9780000448226929, 0.25600001215934753, 192.0, 1.5, 32.0, 15.0, 72.0, 4.0, 0.0, 0.0, 0.0, 0.0, 1.6283199324021485E9, 2021-08-07 01:05:32.402
174.0, 880513.5, 914473.5, -1300570.03125, -1169948.0625, 99545.3671875, -855864.5625, -181018.0078125, -499131.796875, -120247.1953125, 463458.375, -1275408.1875, -1325779.03125, 410965.40625, 355557.9375, -836902.96875, -759369.375, 0.10400000214576721, 0.9780000448226929, 0.25600001215934753, 192.0, 0.0, 0.0, 0.0, 0.0, 0.0, 0.0, 0.0, 0.0, 0.0, 1.6283199324021528E9, 2021-08-07 01:05:32.402
176.0, 879751.21875, 914332.96875, -1300613.4375, -1169707.6875, 98847.99609375, -851560.6875, -182058.17578125, -499321.6875, -121438.62890625, 440596.875, -1280238.84375, -1346270.0625, 412601.015625, 354430.875, -838420.5, -760146.703125, 0.10400000214576721, 0.9780000448226929, 0.25600001215934753, 192.0, 0.0, 0.0, 0.0, 0.0, 0.0, 0.0, 0.0, 0.0, 0.0, 1.6283199324021573E9, 2021-08-07 01:05:32.402
178.0, 880733.4375, 914818.40625, -1300705.21875, -1170268.3125, 101851.53515625, -854367.28125, -181804.4296875, -500188.59375, -119894.75390625, 464170.265625, -1274778.9375, -1324751.15625, 411101.671875, 355828.8515625, -836753.25, -759636.515625, 0.10400000214576721, 0.9780000448226929, 0.25600001215934753, 192.0, 0.0, 0.0, 0.0, 0.0, 0.0, 0.0, 0.0, 0.0, 0.0, 1.6283199324021611E9, 2021-08-07 01:05:32.402
180.0, 880695.375, 915086.0625, -1300431.5625, -1169484.0, 97182.87890625, -852486.5625, -182326.93359375, -499572.75, -121114.08984375, 440664.984375, -1279996.875, -1346528.0625, 412895.015625, 354494.1796875, -838620.65625, -760667.015625, 0.10400000214576721, 0.9780000448226929, 0.25600001215934753, 192.0, 0.0, 0.0, 0.0, 0.0, 0.0, 0.0, 0.0, 0.0, 0.0, 1.6283199324021654E9, 2021-08-07 01:05:32.402
182.0, 881202.28125, 915497.53125, -1300900.40625, -1170267.1875, 103986.03515625, -852480.65625, -182546.87109375, -500025.515625, -119351.87109375, 465304.828125, -1274031.1875, -1324378.875, 411393.515625, 356609.90625, -836783.34375, -759438.5625, 0.10200000554323196, 0.9800000190734863, 0.25200000405311584, 192.0, 1.5, 24.0, 15.0, 80.0, 3.5, 112.0, 0.0, 0.0, 0.0, 1.6283199324021697E9, 2021-08-07 01:05:32.402
184.0, 880913.71875, 915185.90625, -1300455.1875, -1169462.53125, 95353.611328125, -853878.09375, -182314.0546875, -499494.421875, -121036.30078125, 441407.4375, -1279807.03125, -1346228.71875, 412775.90625, 354531.7265625, -838896.84375, -760554.890625, 0.10200000554323196, 0.9800000190734863, 0.25200000405311584, 192.0, 0.0, 0.0, 0.0, 0.0, 0.0, 0.0, 0.0, 0.0, 0.0, 1.6283199324021738E9, 2021-08-07 01:05:32.402
186.0, 880801.03125, 915191.25, -1301061.375, -1170392.71875, 105633.984375, -851141.15625, -182652.55078125, -500104.359375, -119570.7421875, 464426.15625, -1274223.1875, -1325231.34375, 411215.953125, 356293.9453125, -837045.09375, -759514.734375, 0.10200000554323196, 0.9800000190734863, 0.25200000405311584, 192.0, 0.0, 0.0, 0.0, 0.0, 0.0, 0.0, 0.0, 0.0, 0.0, 1.628319932402178E9, 2021-08-07 01:05:32.402
188.0, 880728.09375, 914817.375, -1300447.125, -1169535.0, 93685.81640625, -855498.65625, -181715.37890625, -499281.46875, -121268.578125, 442139.671875, -1279943.8125, -1345418.15625, 412447.078125, 354030.703125, -838951.03125, -760667.015625, 0.10200000554323196, 0.9800000190734863, 0.25200000405311584, 192.0, 0.0, 0.0, 0.0, 0.0, 0.0, 0.0, 0.0, 0.0, 0.0, 1.6283199324021823E9, 2021-08-07 01:05:32.402
190.0, 880293.0, 914907.46875, -1301356.40625, -1170746.25, 106549.1484375, -850138.03125, -182674.0078125, -500671.359375, -119868.46875, 462446.109375, -1274814.375, -1326894.28125, 411058.78125, 356122.2890625, -837284.90625, -759814.078125, 0.10200000554323196, 0.9800000190734863, 0.25200000405311584, 192.0, 0.0, 0.0, 0.0, 0.0, 0.0, 0.0, 0.0, 0.0, 0.0, 1.6283199324021864E9, 2021-08-07 01:05:32.402
192.0, 880842.375, 914819.53125, -1300310.34375, -1169471.625, 92380.65234375, -856979.25, -181215.421875, -498959.578125, -121159.1484375, 443683.546875, -1279875.1875, -1344111.375, 412409.53125, 353909.4609375, -838784.25, -760837.078125, 0.10400000214576721, 0.9740000367164612, 0.25200000405311584, 192.0, 1.5, 32.0, 15.0, 56.0, 3.5, 112.0, 0.0, 0.0, 0.0, 1.628319932402192E9, 2021-08-07 01:05:32.402
194.0, 880250.15625, 914932.6875, -1301107.5, -1170380.90625, 107448.234375, -849050.625, -182796.31640625, -500431.59375, -119781.5625, 460445.203125, -1275223.6875, -1328770.78125, 411406.921875, 356112.6328125, -837156.65625, -759608.625, 0.10400000214576721, 0.9740000367164612, 0.25200000405311584, 192.0, 0.0, 0.0, 0.0, 0.0, 0.0, 0.0, 0.0, 0.0, 0.0, 1.628319932402196E9, 2021-08-07 01:05:32.402
196.0, 880933.03125, 914747.0625, -1299879.5625, -1169050.59375, 91898.390625, -857854.21875, -180873.17578125, -498762.703125, -121018.06640625, 446206.96875, -1279405.21875, -1341777.28125, 412279.6875, 354146.0390625, -838431.28125, -760473.375, 0.10400000214576721, 0.9740000367164612, 0.25200000405311584, 192.0, 0.0, 0.0, 0.0, 0.0, 0.0, 0.0, 0.0, 0.0, 0.0, 1.6283199324022005E9, 2021-08-07 01:05:32.402
198.0, 879939.46875, 914747.625, -1300941.75, -1170083.71875, 107801.203125, -848053.40625, -182681.51953125, -500073.75, -120081.97265625, 457900.875, -1275820.21875, -1330869.28125, 411557.109375, 356370.65625, -837074.625, -759035.71875, 0.10400000214576721, 0.9740000367164612, 0.25200000405311584, 192.0, 0.0, 0.0, 0.0, 0.0, 0.0, 0.0, 0.0, 0.0, 0.0, 1.6283199324022045E9, 2021-08-07 01:05:32.402
200.0, 881104.6875, 914835.09375, -1299741.75, -1169066.0625, 91647.873046875, -858493.125, -180363.01171875, -498442.96875, -121172.5546875, 449025.421875, -1278909.5625, -1339068.84375, 412028.109375, 354468.4453125, -838039.6875, -760026.0, 0.10400000214576721, 0.9740000367164612, 0.25200000405311584, 192.0, 0.0, 0.0, 0.0, 0.0, 0.0, 0.0, 0.0, 0.0, 0.0, 1.6283199324022086E9, 2021-08-07 01:05:32.402
202.0, 879705.09375, 914577.0, -1301061.9375, -1170464.0625, 107502.41015625, -847732.59375, -182680.44140625, -500564.625, -120429.5859375, 454927.921875, -1276607.71875, -1333597.125, 411810.328125, 356132.484375, -837066.0, -759240.09375, 0.10400000214576721, 0.9740000367164612, 0.2540000081062317, 192.0, 1.5, 32.0, 15.0, 56.0, 3.5, 120.0, 0.0, 0.0, 0.0, 1.6283199324022129E9, 2021-08-07 01:05:32.402
204.0, 880971.65625, 914760.46875, -1300061.4375, -1169610.5625, 92215.962890625, -859023.65625, -180788.4140625, -498985.875, -120997.13671875, 451932.421875, -1278287.25, -1336516.40625, 411930.46875, 354392.7890625, -837728.53125, -760403.625, 0.10400000214576721, 0.9740000367164612, 0.2540000081062317, 192.0, 0.0, 0.0, 0.0, 0.0, 0.0, 0.0, 0.0, 0.0, 0.0, 1.628319932402217E9, 2021-08-07 01:05:32.402
206.0, 879833.25, 914799.09375, -1301085.5625, -1170471.5625, 106919.296875, -847703.625, -182903.0625, -500723.953125, -120617.34375, 451594.453125, -1277388.1875, -1336749.75, 411920.8125, 355568.671875, -837622.875, -760283.484375, 0.10400000214576721, 0.9740000367164612, 0.2540000081062317, 192.0, 0.0, 0.0, 0.0, 0.0, 0.0, 0.0, 0.0, 0.0, 0.0, 1.6283199324022212E9, 2021-08-07 01:05:32.402
208.0, 880620.75, 914299.6875, -1300421.90625, -1170149.71875, 93210.52734375, -859155.09375, -181062.5390625, -499837.734375, -120562.08984375, 454773.421875, -1277428.96875, -1333701.1875, 412000.734375, 354433.03125, -837366.375, -760823.671875, 0.10400000214576721, 0.9740000367164612, 0.2540000081062317, 192.0, 0.0, 0.0, 0.0, 0.0, 0.0, 0.0, 0.0, 0.0, 0.0, 1.6283199324022253E9, 2021-08-07 01:05:32.402
210.0, 879397.125, 914305.03125, -1301472.84375, -1170791.34375, 105656.5078125, -848102.25, -183235.125, -501193.875, -120984.26953125, 448000.828125, -1278323.25, -1339748.53125, 412017.375, 354736.125, -838131.375, -760978.6875, 0.10500000417232513, 0.9730000495910645, 0.2500000074505806, 192.0, 1.5, 40.0, 15.0, 48.0, 3.5, 88.0, 0.0, 0.0, 0.0, 1.6283199324022293E9, 2021-08-07 01:05:32.402
212.0, 881275.21875, 915021.75, -1300087.21875, -1169552.625, 94734.0234375, -858173.34375, -180734.2265625, -498692.4375, -120338.390625, 457849.875, -1276628.0625, -1331151.46875, 411802.265625, 354766.6875, -837441.0, -760484.625, 0.10500000417232513, 0.9730000495910645, 0.2500000074505806, 192.0, 0.0, 0.0, 0.0, 0.0, 0.0, 0.0, 0.0, 0.0, 0.0, 1.628319932402234E9, 2021-08-07 01:05:32.402
214.0, 879853.125, 914796.46875, -1301083.875, -1170111.65625, 104298.7734375, -848143.03125, -183082.2421875, -500319.984375, -120812.6015625, 445859.90625, -1278368.25, -1341799.3125, 412435.265625, 355338.5390625, -838072.40625, -759953.015625, 0.10500000417232513, 0.9730000495910645, 0.2500000074505806, 192.0, 0.0, 0.0, 0.0, 0.0, 0.0, 0.0, 0.0, 0.0, 0.0, 1.6283199324022384E9, 2021-08-07 01:05:32.402
216.0, 881117.53125, 914887.59375, -1300276.03125, -1169685.65625, 96500.525390625, -857399.25, -181155.33984375, -499312.03125, -120224.1328125, 460543.921875, -1275862.59375, -1328503.59375, 411374.71875, 355156.6875, -837386.8125, -760067.296875, 0.10500000417232513, 0.9730000495910645, 0.2500000074505806, 192.0, 0.0, 0.0, 0.0, 0.0, 0.0, 0.0, 0.0, 0.0, 0.0, 1.6283199324022424E9, 2021-08-07 01:05:32.402
218.0, 879925.03125, 914590.96875, -1300739.53125, -1169727.0, 102619.7109375, -849058.6875, -182791.48828125, -499972.40625, -121058.296875, 443429.25, -1279108.59375, -1343964.9375, 412467.984375, 354884.71875, -838460.71875, -760142.390625, 0.10500000417232513, 0.9730000495910645, 0.2500000074505806, 192.0, 0.0, 0.0, 0.0, 0.0, 0.0, 0.0, 0.0, 0.0, 0.0, 1.6283199324022467E9, 2021-08-07 01:05:32.402
220.0, 881024.15625, 914692.875, -1300357.03125, -1169742.0, 98649.515625, -856331.8125, -181383.328125, -499514.25, -119960.203125, 462585.09375, -1275099.1875, -1326482.25, 411450.375, 355595.5078125, -837095.53125, -759712.171875, 0.10250000283122063, 0.9725000560283661, 0.24700001254677773, 192.0, 1.5, 16.0, 15.0, 48.0, 3.5, 80.0, 0.0, 0.0, 0.0, 1.6283199324022508E9, 2021-08-07 01:05:32.402
222.0, 879916.96875, 914400.0, -1300840.875, -1169829.46875, 100520.0859375, -850392.28125, -182636.98828125, -500262.046875, -121312.5703125, 441466.96875, -1279717.40625, -1345637.0625, 412676.109375, 354533.34375, -838723.59375, -760612.828125, 0.10250000283122063, 0.9725000560283661, 0.24700001254677773, 192.0, 0.0, 0.0, 0.0, 0.0, 0.0, 0.0, 0.0, 0.0, 0.0, 1.6283199324022548E9, 2021-08-07 01:05:32.402
224.0, 880965.75, 914776.03125, -1300605.9375, -1169965.21875, 100579.62890625, -855243.84375, -181523.34375, -499832.390625, -119977.359375, 463809.234375, -1274973.1875, -1325392.78125, 411420.84375, 355740.328125, -837075.09375, -759978.234375, 0.10250000283122063, 0.9725000560283661, 0.24700001254677773, 192.0, 0.0, 0.0, 0.0, 0.0, 0.0, 0.0, 0.0, 0.0, 0.0, 1.628319932402259E9, 2021-08-07 01:05:32.402
226.0, 880144.40625, 914498.15625, -1300836.65625, -1169647.03125, 98446.734375, -851869.6875, -182226.08203125, -499771.21875, -121264.828125, 440606.53125, -1280054.8125, -1346592.375, 413043.046875, 354564.46875, -838618.5, -760531.828125, 0.10250000283122063, 0.9725000560283661, 0.24700001254677773, 192.0, 0.0, 0.0, 0.0, 0.0, 0.0, 0.0, 0.0, 0.0, 0.0, 1.6283199325472596E9, 2021-08-07 01:05:32.547
228.0, 881047.21875, 914884.96875, -1300835.53125, -1169920.125, 102440.54296875, -853828.78125, -181665.4921875, -499900.5, -119771.90625, 464714.203125, -1274573.53125, -1324784.4375, 411532.96875, 356160.9140625, -836838.0, -759717.515625, 0.10250000283122063, 0.9725000560283661, 0.24700001254677773, 192.0, 0.0, 0.0, 0.0, 0.0, 0.0, 0.0, 0.0, 0.0, 0.0, 1.6283199325472653E9, 2021-08-07 01:05:32.547
230.0, 880681.96875, 914944.5, -1300487.90625, -1168917.0, 96418.986328125, -853081.5, -181716.45703125, -498807.75, -121320.08203125, 440530.359375, -1280153.53125, -1346683.03125, 412982.4375, 354551.578125, -838718.8125, -760299.046875, 0.10325000248849392, 0.9732500463724136, 0.24750001169741154, 192.0, 1.5, 32.0, 15.0, 56.0, 3.5, 96.0, 0.0, 0.0, 0.0, 1.628319932547269E9, 2021-08-07 01:05:32.547
232.0, 881059.03125, 915240.5625, -1301095.21875, -1169787.65625, 104457.03515625, -852262.3125, -182045.8359375, -500262.046875, -119608.828125, 464668.078125, -1274252.71875, -1324609.59375, 411602.15625, 356771.390625, -836663.15625, -758955.234375, 0.10325000248849392, 0.9732500463724136, 0.24750001169741154, 192.0, 0.0, 0.0, 0.0, 0.0, 0.0, 0.0, 0.0, 0.0, 0.0, 1.6283199325472736E9, 2021-08-07 01:05:32.547
234.0, 880806.9375, 914827.5, -1300861.78125, -1169161.59375, 94813.951171875, -854871.5625, -181685.8828125, -498716.015625, -121509.984375, 441056.578125, -1280252.25, -1346159.53125, 412751.25, 354593.953125, -838888.875, -760272.75, 0.10325000248849392, 0.9732500463724136, 0.24750001169741154, 192.0, 0.0, 0.0, 0.0, 0.0, 0.0, 0.0, 0.0, 0.0, 0.0, 1.6283199325472777E9, 2021-08-07 01:05:32.547
236.0, 880920.09375, 915163.3125, -1301471.71875, -1170157.21875, 105977.30859375, -851167.40625, -182003.44921875, -499940.71875, -119734.359375, 463604.859375, -1274613.1875, -1325656.125, 411556.03125, 356841.1171875, -836746.3125, -759072.703125, 0.10325000248849392, 0.9732500463724136, 0.24750001169741154, 192.0, 0.0, 0.0, 0.0, 0.0, 0.0, 0.0, 0.0, 0.0, 0.0, 1.628319932547282E9, 2021-08-07 01:05:32.547
238.0, 881071.96875, 914853.28125, -1300957.3125, -1169443.21875, 93248.07421875, -856453.59375, -181118.859375, -498919.875, -121339.39453125, 442469.578125, -1280212.59375, -1345073.25, 413009.25, 354534.421875, -838655.4375, -760465.3125, 0.10325000248849392, 0.9732500463724136, 0.24750001169741154, 192.0, 0.0, 0.0, 0.0, 0.0, 0.0, 0.0, 0.0, 0.0, 0.0, 1.6283199325472867E9, 2021-08-07 01:05:32.547
240.0, 880829.4375, 915066.28125, -1301727.09375, -1170456.0, 107097.3984375, -849962.625, -182054.4140625, -500092.03125, -119787.99609375, 461925.796875, -1275072.9375, -1327360.40625, 411839.8125, 356813.765625, -836815.5, -759413.34375, 0.10262500401586294, 0.9696250334382057, 0.2497500078752637, 192.0, 1.5, 24.0, 15.0, 24.0, 3.5, 112.0, 0.0, 0.0, 0.0, 1.628319932547291E9, 2021-08-07 01:05:32.547
242.0, 881208.75, 914766.9375, -1300935.84375, -1169411.0625, 92347.927734375, -857514.65625, -180972.94921875, -498901.640625, -121103.35546875, 444585.84375, -1279802.15625, -1343212.875, 413040.375, 354792.984375, -838218.84375, -760507.6875, 0.10262500401586294, 0.9696250334382057, 0.2497500078752637, 192.0, 0.0, 0.0, 0.0, 0.0, 0.0, 0.0, 0.0, 0.0, 0.0, 1.628319932547295E9, 2021-08-07 01:05:32.547
244.0, 880656.75, 914961.65625, -1301936.8125, -1170350.90625, 107750.77734375, -848887.59375, -182355.36328125, -500237.90625, -119988.09375, 459559.546875, -1275629.25, -1329374.8125, 411818.34375, 356865.2578125, -837022.59375, -759405.84375, 0.10262500401586294, 0.9696250334382057, 0.2497500078752637, 192.0, 0.0, 0.0, 0.0, 0.0, 0.0, 0.0, 0.0, 0.0, 0.0, 1.6283199325472994E9, 2021-08-07 01:05:32.547
246.0, 881435.15625, 914771.71875, -1301162.8125, -1169452.3125, 91952.033203125, -858406.78125, -180928.95703125, -498583.546875, -120891.99609375, 447177.9375, -1279310.25, -1340858.90625, 412745.859375, 355091.25, -838330.96875, -760274.90625, 0.10262500401586294, 0.9696250334382057, 0.2497500078752637, 192.0, 0.0, 0.0, 0.0, 0.0, 0.0, 0.0, 0.0, 0.0, 0.0, 1.628319932547305E9, 2021-08-07 01:05:32.547
248.0, 880881.46875, 915127.40625, -1302055.96875, -1170321.9375, 108073.18359375, -847965.46875, -182660.58984375, -500167.640625, -119817.50390625, 457231.359375, -1275942.0, -1331700.28125, 412114.453125, 357012.7734375, -837375.0, -759336.140625, 0.10262500401586294, 0.9696250334382057, 0.2497500078752637, 192.0, 0.0, 0.0, 0.0, 0.0, 0.0, 0.0, 0.0, 0.0, 0.0, 1.6283199325473099E9, 2021-08-07 01:05:32.547
250.0, 881604.65625, 914791.03125, -1301070.46875, -1169606.8125, 92008.359375, -859037.0625, -180635.53125, -498888.75, -120564.234375, 450319.875, -1278473.4375, -1338094.6875, 412631.0625, 355207.640625, -837982.21875, -760310.8125, 0.10600000619888306, 0.9660000205039978, 0.24800001084804535, 192.0, 1.5, 40.0, 15.0, 24.0, 3.5, 96.0, 0.0, 0.0, 0.0, 1.628319932547314E9, 2021-08-07 01:05:32.547
252.0, 880256.53125, 914568.46875, -1302197.0625, -1170716.25, 107384.9296875, -848117.25, -182687.953125, -500428.875, -120192.48046875, 454032.046875, -1276957.40625, -1334615.8125, 412195.5, 356525.6953125, -837380.34375, -759728.25, 0.10600000619888306, 0.9660000205039978, 0.24800001084804535, 192.0, 0.0, 0.0, 0.0, 0.0, 0.0, 0.0, 0.0, 0.0, 0.0, 1.6283199325473197E9, 2021-08-07 01:05:32.547
254.0, 881366.4375, 914491.21875, -1301045.25, -1169788.6875, 92377.4296875, -859438.875, -180572.2265625, -498718.734375, -120462.84375, 453052.5, -1278117.75, -1335527.25, 412375.734375, 355201.21875, -837504.28125, -760250.203125, 0.10600000619888306, 0.9660000205039978, 0.24800001084804535, 192.0, 0.0, 0.0, 0.0, 0.0, 0.0, 0.0, 0.0, 0.0, 0.0, 1.6283199325473273E9, 2021-08-07 01:05:32.547
0.0, 880224.375, 914544.84375, -1301932.03125, -1170354.09375, 106472.9765625, -848029.3125, -182752.86328125, -500039.4375, -120511.6640625, 450635.296875, -1277853.28125, -1337515.3125, 412214.25, 356171.109375, -837637.3125, -759763.640625, 0.10600000619888306, 0.9660000205039978, 0.24800001084804535, 192.0, 0.0, 0.0, 0.0, 0.0, 0.0, 0.0, 0.0, 0.0, 0.0, 1.6283199325473332E9, 2021-08-07 01:05:32.547
2.0, 881566.03125, 914786.25, -1300813.03125, -1169456.625, 93638.068359375, -859006.5, -180649.4765625, -498647.390625, -120299.2265625, 456262.03125, -1277237.4375, -1332449.625, 412115.53125, 355538.625, -837408.28125, -759680.53125, 0.10600000619888306, 0.9660000205039978, 0.24800001084804535, 192.0, 0.0, 0.0, 0.0, 0.0, 0.0, 0.0, 0.0, 0.0, 0.0, 1.6283199330135708E9, 2021-08-07 01:05:33.013
4.0, 880285.5, 914701.96875, -1301767.3125, -1170072.46875, 105342.1640625, -848102.25, -182809.18359375, -500199.28125, -120562.08984375, 447809.859375, -1278279.1875, -1339847.15625, 412523.25, 356202.2109375, -837962.90625, -759559.828125, 0.1080000028014183, 0.9740000367164612, 0.24400001764297485, 192.0, 1.5, 48.0, 15.0, 56.0, 3.5, 80.0, 0.0, 0.0, 0.0, 1.6283199330135832E9, 2021-08-07 01:05:33.013
6.0, 881530.59375, 914884.96875, -1301067.28125, -1169770.5, 95238.814453125, -858398.15625, -181022.8359375, -498801.328125, -120189.2578125, 458916.328125, -1276532.53125, -1329749.25, 411753.46875, 355738.1953125, -837562.21875, -759847.875, 0.1080000028014183, 0.9740000367164612, 0.24400001764297485, 192.0, 0.0, 0.0, 0.0, 0.0, 0.0, 0.0, 0.0, 0.0, 0.0, 1.6283199330135875E9, 2021-08-07 01:05:33.013
8.0, 880603.59375, 914964.375, -1301580.65625, -1169946.9375, 103701.71484375, -848740.59375, -182500.1953125, -499847.390625, -120647.91796875, 445184.484375, -1278842.53125, -1342244.0625, 412822.59375, 355856.7421875, -838392.65625, -759906.375, 0.1080000028014183, 0.9740000367164612, 0.24400001764297485, 192.0, 0.0, 0.0, 0.0, 0.0, 0.0, 0.0, 0.0, 0.0, 0.0, 1.6283199330135915E9, 2021-08-07 01:05:33.013
10.0, 881791.875, 915186.375, -1301126.25, -1169891.71875, 96980.63671875, -857369.8125, -180754.078125, -498932.203125, -119570.203125, 461760.5625, -1275513.375, -1327470.9375, 412094.625, 356190.421875, -837132.0, -759686.953125, 0.1080000028014183, 0.9740000367164612, 0.24400001764297485, 192.0, 0.0, 0.0, 0.0, 0.0, 0.0, 0.0, 0.0, 0.0, 0.0, 1.6283199330135956E9, 2021-08-07 01:05:33.013
12.0, 880440.0, 914704.125, -1301861.25, -1170191.53125, 101607.4453125, -849923.4375, -182386.4765625, -499872.09375, -120891.99609375, 443057.53125, -1279522.125, -1344380.15625, 412813.453125, 355405.0546875, -838664.0625, -760189.078125, 0.1080000028014183, 0.9740000367164612, 0.24400001764297485, 192.0, 0.0, 0.0, 0.0, 0.0, 0.0, 0.0, 0.0, 0.0, 0.0, 1.6283199330136006E9, 2021-08-07 01:05:33.013
14.0, 881451.1875, 914925.1875, -1301729.25, -1170507.0, 98764.83984375, -856604.8125, -181498.125, -499600.078125, -119722.01953125, 463421.90625, -1275335.25, -1326122.90625, 411419.765625, 356097.609375, -837438.84375, -759971.8125, 0.11000000685453415, 0.9780000448226929, 0.24000000953674316, 192.0, 1.5, 56.0, 15.0, 72.0, 3.5, 64.0, 0.0, 0.0, 0.0, 1.6283199330136049E9, 2021-08-07 01:05:33.013
16.0, 880832.71875, 915028.125, -1301781.84375, -1170132.5625, 99567.36328125, -851055.375, -182420.2734375, -499913.90625, -120880.1953125, 441585.0, -1279958.8125, -1346079.5625, 412752.328125, 355216.2421875, -839183.34375, -760722.796875, 0.11000000685453415, 0.9780000448226929, 0.24000000953674316, 192.0, 0.0, 0.0, 0.0, 0.0, 0.0, 0.0, 0.0, 0.0, 0.0, 1.628319933013609E9, 2021-08-07 01:05:33.013
18.0, 881594.4375, 915308.71875, -1301734.59375, -1170528.46875, 101094.609375, -854958.46875, -181808.73046875, -499989.0, -119281.60546875, 464789.859375, -1274619.09375, -1325003.8125, 411375.28125, 356521.40625, -837346.03125, -759954.65625, 0.11000000685453415, 0.9780000448226929, 0.24000000953674316, 192.0, 0.0, 0.0, 0.0, 0.0, 0.0, 0.0, 0.0, 0.0, 0.0, 1.628319933013613E9, 2021-08-07 01:05:33.013
20.0, 880624.03125, 914851.125, -1301847.84375, -1170311.71875, 97578.7734375, -852606.1875, -182551.69921875, -499881.1875, -120927.3984375, 440852.203125, -1280166.46875, -1346729.25, 412803.28125, 354775.2890625, -839352.84375, -760935.796875, 0.11000000685453415, 0.9780000448226929, 0.24000000953674316, 192.0, 0.0, 0.0, 0.0, 0.0, 0.0, 0.0, 0.0, 0.0, 0.0, 1.6283199330136173E9, 2021-08-07 01:05:33.013
22.0, 881444.8125, 915280.3125, -1301577.9375, -1170447.9375, 103019.3671875, -853645.3125, -181963.7578125, -499823.25, -119446.2890625, 464943.28125, -1274658.75, -1324795.6875, 411285.140625, 356442.0, -837419.53125, -759949.265625, 0.11000000685453415, 0.9780000448226929, 0.24000000953674316, 192.0, 0.0, 0.0, 0.0, 0.0, 0.0, 0.0, 0.0, 0.0, 0.0, 1.628319933013621E9, 2021-08-07 01:05:33.013
24.0, 880809.65625, 914746.03125, -1301036.71875, -1169596.6875, 95637.92578125, -854015.4375, -181888.65234375, -499208.484375, -121073.3203125, 440852.203125, -1280317.21875, -1346581.125, 412892.296875, 354656.71875, -839044.96875, -760590.328125, 0.10400000214576721, 0.9760000705718994, 0.24000000953674316, 192.0, 1.5, 32.0, 15.0, 64.0, 3.5, 64.0, 0.0, 0.0, 0.0, 1.6283199330136251E9, 2021-08-07 01:05:33.013
26.0, 880923.375, 914902.125, -1301410.03125, -1170405.09375, 104693.0625, -852209.25, -182131.6640625, -500052.84375, -119669.98828125, 464417.578125, -1274766.09375, -1325028.0, 411264.75, 356510.1328125, -836953.3125, -759358.125, 0.10400000214576721, 0.9760000705718994, 0.24000000953674316, 192.0, 0.0, 0.0, 0.0, 0.0, 0.0, 0.0, 0.0, 0.0, 0.0, 1.6283199330136292E9, 2021-08-07 01:05:33.013
28.0, 880595.625, 914410.6875, -1300789.40625, -1169567.15625, 93963.15234375, -855567.84375, -181385.47265625, -499142.53125, -121316.3203125, 441416.53125, -1280575.78125, -1345968.5625, 412712.625, 354328.96875, -838711.78125, -760578.0, 0.10400000214576721, 0.9760000705718994, 0.24000000953674316, 192.0, 0.0, 0.0, 0.0, 0.0, 0.0, 0.0, 0.0, 0.0, 0.0, 1.6283199330136333E9, 2021-08-07 01:05:33.013
30.0, 880334.90625, 914524.40625, -1301566.6875, -1170581.53125, 106045.4296875, -850963.59375, -181981.46484375, -500214.84375, -120064.265625, 462866.71875, -1275243.0, -1326288.65625, 411228.28125, 356426.4375, -836917.40625, -759493.828125, 0.10400000214576721, 0.9760000705718994, 0.24000000953674316, 192.0, 0.0, 0.0, 0.0, 0.0, 0.0, 0.0, 0.0, 0.0, 0.0, 1.6283199330136373E9, 2021-08-07 01:05:33.013
32.0, 880764.5625, 914463.84375, -1300961.0625, -1169738.25, 92668.72265625, -856999.6875, -180981.0, -498912.375, -121463.30859375, 442912.125, -1280389.03125, -1344610.78125, 412567.78125, 354193.78125, -838657.125, -760773.796875, 0.10400000214576721, 0.9760000705718994, 0.24000000953674316, 192.0, 0.0, 0.0, 0.0, 0.0, 0.0, 0.0, 0.0, 0.0, 0.0, 1.6283199330136416E9, 2021-08-07 01:05:33.013
34.0, 880005.0, 914307.1875, -1302096.1875, -1171040.71875, 107077.546875, -849952.40625, -182468.54296875, -500683.6875, -120056.2265625, 461017.03125, -1275464.53125, -1328079.84375, 411455.71875, 356363.6953125, -837148.59375, -759811.921875, 0.11400000751018524, 0.9760000705718994, 0.2460000067949295, 192.0, 1.5, 72.0, 15.0, 64.0, 3.5, 88.0, 0.0, 0.0, 0.0, 1.6283199330136456E9, 2021-08-07 01:05:33.013
36.0, 880468.40625, 913968.1875, -1301267.90625, -1170059.0625, 91648.40625, -858367.59375, -181176.796875, -498974.0625, -121549.13671875, 444883.546875, -1280187.375, -1342959.09375, 412255.03125, 354018.890625, -839011.125, -761296.828125, 0.11400000751018524, 0.9760000705718994, 0.2460000067949295, 192.0, 0.0, 0.0, 0.0, 0.0, 0.0, 0.0, 0.0, 0.0, 0.0, 1.6283199330136497E9, 2021-08-07 01:05:33.013
38.0, 879756.5625, 914063.15625, -1302216.375, -1170906.09375, 107302.3125, -849116.625, -182675.61328125, -500490.609375, -120433.875, 458527.40625, -1276288.5, -1330579.59375, 411463.21875, 356177.53125, -837806.8125, -760023.84375, 0.11400000751018524, 0.9760000705718994, 0.2460000067949295, 192.0, 0.0, 0.0, 0.0, 0.0, 0.0, 0.0, 0.0, 0.0, 0.0, 1.628319933013655E9, 2021-08-07 01:05:33.013
40.0, 880312.875, 913709.0625, -1301213.15625, -1169870.25, 91242.85546875, -859171.6875, -181034.63671875, -498797.578125, -121499.25, 447666.09375, -1279719.0, -1340607.375, 412195.5, 354305.3671875, -838861.5, -760896.09375, 0.11400000751018524, 0.9760000705718994, 0.2460000067949295, 192.0, 0.0, 0.0, 0.0, 0.0, 0.0, 0.0, 0.0, 0.0, 0.0, 1.6283199330136592E9, 2021-08-07 01:05:33.013
42.0, 879116.625, 913624.875, -1302542.53125, -1171163.625, 107029.8046875, -848807.0625, -183089.21484375, -500676.75, -121008.41015625, 455577.0, -1277070.09375, -1333421.15625, 411441.796875, 355979.0625, -838090.03125, -760097.859375, 0.1120000071823597, 0.9760000705718994, 0.24700000882148743, 192.0, 1.5, 56.0, 15.0, 64.0, 3.5, 96.0, 0.0, 0.0, 0.0, 1.6283199330136633E9, 2021-08-07 01:05:33.013
44.0, 880249.59375, 913703.71875, -1301547.375, -1170330.46875, 91219.25390625, -859943.625, -181067.3671875, -498819.046875, -121579.18359375, 450539.8125, -1279265.71875, -1338130.03125, 411851.0625, 354287.109375, -838754.15625, -761001.75, 0.1120000071823597, 0.9760000705718994, 0.24700000882148743, 192.0, 0.0, 0.0, 0.0, 0.0, 0.0, 0.0, 0.0, 0.0, 0.0, 1.628319933013667E9, 2021-08-07 01:05:33.013
46.0, 878891.34375, 913462.875, -1302742.59375, -1171439.34375, 106441.32421875, -848647.21875, -183404.09765625, -501206.203125, -121415.02734375, 452278.40625, -1278047.53125, -1336350.09375, 411486.28125, 355452.796875, -838564.3125, -760787.203125, 0.1120000071823597, 0.9760000705718994, 0.24700000882148743, 192.0, 0.0, 0.0, 0.0, 0.0, 0.0, 0.0, 0.0, 0.0, 0.0, 1.6283199330136712E9, 2021-08-07 01:05:33.013
48.0, 880445.90625, 913888.78125, -1301475.0, -1170353.53125, 92214.890625, -859716.1875, -181135.48828125, -499394.109375, -121478.87109375, 453676.359375, -1278521.71875, -1335320.15625, 411646.171875, 354289.265625, -838646.90625, -761307.0, 0.1120000071823597, 0.9760000705718994, 0.24700000882148743, 192.0, 0.0, 0.0, 0.0, 0.0, 0.0, 0.0, 0.0, 0.0, 0.0, 1.6283199330136752E9, 2021-08-07 01:05:33.013
50.0, 879378.9375, 913964.4375, -1302253.875, -1170813.84375, 105556.1953125, -848376.84375, -183082.2421875, -500819.953125, -121309.34765625, 449455.640625, -1278478.78125, -1339001.8125, 411958.921875, 355348.1953125, -838593.75, -760669.171875, 0.1120000071823597, 0.9760000705718994, 0.24700000882148743, 192.0, 0.0, 0.0, 0.0, 0.0, 0.0, 0.0, 0.0, 0.0, 0.0, 1.6283199330136793E9, 2021-08-07 01:05:33.013
52.0, 880633.125, 914117.8125, -1301196.5625, -1169994.65625, 93434.220703125, -859294.03125, -180802.8984375, -498981.5625, -120933.3046875, 457010.90625, -1277481.5625, -1332314.4375, 411719.671875, 355004.34375, -838029.46875, -760570.453125, 0.10800000466406345, 0.9780000448226929, 0.25050000846385956, 192.0, 1.5, 32.0, 15.0, 80.0, 3.5, 120.0, 0.0, 0.0, 0.0, 1.6283199330136833E9, 2021-08-07 01:05:33.013
54.0, 879268.96875, 913878.5625, -1302006.5625, -1170469.96875, 104087.953125, -848905.3125, -182962.6171875, -499982.578125, -121589.90625, 446699.953125, -1279227.09375, -1341571.875, 412073.15625, 355294.0078125, -838687.125, -760197.09375, 0.10800000466406345, 0.9780000448226929, 0.25050000846385956, 192.0, 0.0, 0.0, 0.0, 0.0, 0.0, 0.0, 0.0, 0.0, 0.0, 1.6283199330136874E9, 2021-08-07 01:05:33.013
56.0, 880703.90625, 914277.65625, -1300883.8125, -1169805.84375, 95203.9453125, -858457.125, -180925.20703125, -498967.078125, -120831.9140625, 459782.71875, -1276800.84375, -1329637.125, 411570.515625, 355428.65625, -837598.6875, -759992.71875, 0.10800000466406345, 0.9780000448226929, 0.25050000846385956, 192.0, 0.0, 0.0, 0.0, 0.0, 0.0, 0.0, 0.0, 0.0, 0.0, 1.6283199330136914E9, 2021-08-07 01:05:33.013
58.0, 879571.5, 914213.8125, -1301430.46875, -1170079.96875, 102603.62109375, -849326.34375, -182742.66796875, -500093.0625, -121474.5703125, 444323.53125, -1279577.4375, -1343405.4375, 412595.109375, 355294.546875, -838445.71875, -760186.921875, 0.10800000466406345, 0.9780000448226929, 0.25050000846385956, 192.0, 0.0, 0.0, 0.0, 0.0, 0.0, 0.0, 0.0, 0.0, 0.0, 1.6283199330136957E9, 2021-08-07 01:05:33.013
60.0, 880599.375, 914276.625, -1301113.96875, -1170250.59375, 97189.8515625, -857464.21875, -181184.30859375, -499476.703125, -120675.80859375, 462087.234375, -1276019.15625, -1327330.40625, 411365.0625, 355577.25, -837356.71875, -760146.703125, 0.10800000466406345, 0.9780000448226929, 0.25050000846385956, 192.0, 0.0, 0.0, 0.0, 0.0, 0.0, 0.0, 0.0, 0.0, 0.0, 1.6283199330136995E9, 2021-08-07 01:05:33.013
62.0, 879587.625, 914128.03125, -1301785.03125, -1170436.21875, 100424.0625, -850606.3125, -182621.9765625, -500067.328125, -121741.72265625, 442359.609375, -1280136.9375, -1345389.1875, 412446.0, 355011.84375, -838941.9375, -760751.765625, 0.10700000543147326, 0.9790000319480896, 0.2512500062584877, 192.0, 1.5, 40.0, 15.0, 80.0, 3.5, 112.0, 0.0, 0.0, 0.0, 1.6283199330137036E9, 2021-08-07 01:05:33.013
64.0, 880567.6875, 914375.8125, -1301623.59375, -1170578.34375, 98954.21484375, -856450.3125, -181408.0078125, -499693.96875, -120538.48828125, 463733.578125, -1275675.375, -1326180.28125, 410967.5625, 355851.9140625, -837585.28125, -760297.40625, 0.10700000543147326, 0.9790000319480896, 0.2512500062584877, 192.0, 0.0, 0.0, 0.0, 0.0, 0.0, 0.0, 0.0, 0.0, 0.0, 1.6283199330137076E9, 2021-08-07 01:05:33.013
66.0, 879630.5625, 914035.21875, -1301562.375, -1170038.71875, 98263.810546875, -852032.15625, -182048.51953125, -499508.90625, -121855.453125, 441088.78125, -1280678.71875, -1346746.875, 412484.0625, 354715.1953125, -839075.53125, -760604.8125, 0.10700000543147326, 0.9790000319480896, 0.2512500062584877, 192.0, 0.0, 0.0, 0.0, 0.0, 0.0, 0.0, 0.0, 0.0, 0.0, 1.6283199330137117E9, 2021-08-07 01:05:33.013
68.0, 880401.375, 914188.125, -1301616.09375, -1170527.34375, 101105.8828125, -855111.9375, -181615.60546875, -499860.796875, -120468.2109375, 464620.3125, -1275517.59375, -1325275.875, 410913.375, 355927.03125, -837280.03125, -759932.109375, 0.10700000543147326, 0.9790000319480896, 0.2512500062584877, 192.0, 0.0, 0.0, 0.0, 0.0, 0.0, 0.0, 0.0, 0.0, 0.0, 1.6283199330137155E9, 2021-08-07 01:05:33.013
70.0, 880081.125, 914237.4375, -1301292.5625, -1169842.875, 96624.978515625, -853321.78125, -182102.6953125, -499352.25, -121812.0, 440653.734375, -1280856.28125, -1347100.96875, 412608.0, 354429.8203125, -839053.5, -760677.75, 0.10700000543147326, 0.9790000319480896, 0.2512500062584877, 192.0, 0.0, 0.0, 0.0, 0.0, 0.0, 0.0, 0.0, 0.0, 0.0, 1.6283199330137196E9, 2021-08-07 01:05:33.013
72.0, 880644.9375, 914638.6875, -1301641.78125, -1170641.0625, 103344.4453125, -853304.0625, -182122.546875, -499963.78125, -120005.80078125, 464805.9375, -1274880.375, -1325045.15625, 411275.484375, 356182.359375, -837167.90625, -759776.015625, 0.10750000411644578, 0.9785000383853912, 0.25062500312924385, 192.0, 1.5, 48.0, 15.0, 72.0, 3.5, 104.0, 0.0, 0.0, 0.0, 1.6283199330137248E9, 2021-08-07 01:05:33.013
74.0, 880142.8125, 914100.65625, -1301572.03125, -1170277.40625, 94814.484375, -854813.625, -182278.11328125, -499779.28125, -121780.88671875, 440925.140625, -1280679.84375, -1346919.65625, 412557.5625, 354145.5, -839306.71875, -761190.046875, 0.10750000411644578, 0.9785000383853912, 0.25062500312924385, 192.0, 0.0, 0.0, 0.0, 0.0, 0.0, 0.0, 0.0, 0.0, 0.0, 1.6283199330137289E9, 2021-08-07 01:05:33.013
76.0, 880457.15625, 914622.09375, -1301865.0, -1170946.875, 104917.30078125, -852057.9375, -182372.53125, -500551.21875, -120279.38671875, 464172.421875, -1275028.40625, -1325946.9375, 411132.796875, 356159.8359375, -837451.125, -760300.125, 0.10750000411644578, 0.9785000383853912, 0.25062500312924385, 192.0, 0.0, 0.0, 0.0, 0.0, 0.0, 0.0, 0.0, 0.0, 0.0, 1.628319933013733E9, 2021-08-07 01:05:33.013
78.0, 880324.6875, 914159.15625, -1301216.4375, -1170067.125, 93083.923828125, -856277.0625, -181612.921875, -499624.78125, -121794.29296875, 442043.625, -1280574.09375, -1346090.34375, 412626.796875, 354056.9765625, -839147.4375, -761310.75, 0.10750000411644578, 0.9785000383853912, 0.25062500312924385, 192.0, 0.0, 0.0, 0.0, 0.0, 0.0, 0.0, 0.0, 0.0, 0.0, 1.6283199330137367E9, 2021-08-07 01:05:33.013
80.0, 880139.625, 914365.6875, -1301735.71875, -1170743.53125, 106008.9609375, -850751.15625, -182440.11328125, -500232.5625, -120387.2109375, 462531.421875, -1275381.9375, -1327283.15625, 411218.625, 356030.5546875, -837249.46875, -760091.953125, 0.10750000411644578, 0.9785000383853912, 0.25062500312924385, 192.0, 0.0, 0.0, 0.0, 0.0, 0.0, 0.0, 0.0, 0.0, 0.0, 1.628319933013741E9, 2021-08-07 01:05:33.013
